Wavelength,60,80,130,290,320,350
1520.0,-76.201,-58.653,-51.532,-50.051,-49.934,-49.879
1520.02,-77.53,-58.607,-51.515,-50.027,-49.935,-49.856
1520.04,-76.586,-58.56,-51.483,-50.003,-49.91,-49.824
1520.06,-77.652,-58.56,-51.444,-49.974,-49.881,-49.79
1520.08,-76.292,-58.569,-51.417,-49.925,-49.819,-49.763
1520.1,-77.255,-58.55,-51.384,-49.894,-49.771,-49.724
1520.12,-76.236,-58.479,-51.356,-49.873,-49.753,-49.691
1520.14,-76.701,-58.457,-51.315,-49.843,-49.745,-49.66
1520.16,-76.697,-58.468,-51.282,-49.813,-49.693,-49.642
1520.18,-76.764,-58.459,-51.252,-49.782,-49.692,-49.605
1520.2,-77.142,-58.443,-51.216,-49.745,-49.654,-49.569
1520.22,-75.987,-58.446,-51.201,-49.715,-49.605,-49.541
1520.24,-77.255,-58.417,-51.171,-49.69,-49.574,-49.504
1520.26,-77.511,-58.443,-51.145,-49.653,-49.553,-49.484
1520.28,-76.69,-58.39,-51.116,-49.622,-49.528,-49.444
1520.3,-76.781,-58.407,-51.082,-49.607,-49.473,-49.407
1520.32,-76.39,-58.4,-51.055,-49.561,-49.427,-49.376
1520.34,-76.209,-58.418,-51.024,-49.532,-49.414,-49.37
1520.36,-76.948,-58.387,-50.987,-49.491,-49.377,-49.361
1520.38,-76.99,-58.394,-50.952,-49.462,-49.337,-49.313
1520.4,-76.69,-58.37,-50.913,-49.413,-49.325,-49.292
1520.42,-76.895,-58.309,-50.898,-49.381,-49.284,-49.257
1520.44,-76.873,-58.306,-50.86,-49.361,-49.281,-49.222
1520.46,-76.731,-58.279,-50.81,-49.355,-49.23,-49.191
1520.48,-77.668,-58.233,-50.782,-49.298,-49.192,-49.134
1520.5,-76.842,-58.234,-50.769,-49.246,-49.178,-49.095
1520.52,-76.904,-58.271,-50.745,-49.224,-49.136,-49.073
1520.54,-77.098,-58.244,-50.705,-49.208,-49.085,-49.048
1520.56,-77.204,-58.206,-50.675,-49.173,-49.039,-49.013
1520.58,-77.159,-58.19,-50.637,-49.137,-49.021,-48.993
1520.6,-76.688,-58.163,-50.625,-49.097,-49.003,-48.967
1520.62,-76.801,-58.141,-50.6,-49.06,-48.938,-48.933
1520.64,-77.461,-58.096,-50.556,-49.013,-48.92,-48.908
1520.66,-76.434,-58.069,-50.523,-49.002,-48.914,-48.869
1520.68,-77.027,-58.046,-50.496,-48.957,-48.879,-48.838
1520.7,-78.676,-57.986,-50.467,-48.892,-48.827,-48.8
1520.72,-76.072,-57.95,-50.447,-48.886,-48.815,-48.769
1520.74,-77.933,-57.929,-50.423,-48.892,-48.784,-48.703
1520.76,-76.539,-57.89,-50.398,-48.86,-48.755,-48.66
1520.78,-76.986,-57.873,-50.346,-48.788,-48.711,-48.627
1520.8,-77.858,-57.853,-50.306,-48.767,-48.649,-48.585
1520.82,-77.131,-57.838,-50.278,-48.727,-48.629,-48.554
1520.84,-76.443,-57.821,-50.244,-48.702,-48.601,-48.515
1520.86,-76.35,-57.762,-50.202,-48.674,-48.565,-48.486
1520.88,-76.927,-57.744,-50.176,-48.637,-48.536,-48.447
1520.9,-78.581,-57.728,-50.167,-48.587,-48.511,-48.411
1520.92,-76.295,-57.667,-50.131,-48.551,-48.462,-48.385
1520.94,-76.842,-57.636,-50.097,-48.514,-48.423,-48.338
1520.96,-76.599,-57.596,-50.064,-48.481,-48.399,-48.308
1520.98,-76.315,-57.547,-50.029,-48.46,-48.364,-48.264
1521.0,-78.043,-57.545,-49.991,-48.425,-48.328,-48.234
1521.02,-77.029,-57.569,-49.963,-48.383,-48.295,-48.2
1521.04,-76.857,-57.522,-49.926,-48.341,-48.244,-48.154
1521.06,-76.396,-57.467,-49.887,-48.307,-48.175,-48.119
1521.08,-78.213,-57.441,-49.842,-48.277,-48.165,-48.08
1521.1,-76.255,-57.439,-49.807,-48.235,-48.106,-48.046
1521.12,-76.648,-57.421,-49.771,-48.205,-48.105,-48.013
1521.14,-77.048,-57.414,-49.732,-48.166,-48.072,-47.992
1521.16,-77.961,-57.42,-49.713,-48.124,-48.02,-47.948
1521.18,-76.485,-57.395,-49.678,-48.079,-47.977,-47.907
1521.2,-76.262,-57.394,-49.639,-48.043,-47.932,-47.866
1521.22,-76.657,-57.355,-49.607,-48.004,-47.911,-47.826
1521.24,-76.852,-57.341,-49.569,-47.952,-47.865,-47.789
1521.26,-78.195,-57.351,-49.535,-47.92,-47.805,-47.756
1521.28,-76.524,-57.333,-49.495,-47.905,-47.771,-47.756
1521.3,-76.221,-57.328,-49.45,-47.87,-47.737,-47.724
1521.32,-76.613,-57.327,-49.421,-47.831,-47.708,-47.663
1521.34,-76.747,-57.319,-49.375,-47.774,-47.665,-47.622
1521.36,-76.66,-57.256,-49.354,-47.747,-47.629,-47.591
1521.38,-76.828,-57.229,-49.302,-47.705,-47.62,-47.558
1521.4,-76.553,-57.203,-49.253,-47.664,-47.571,-47.496
1521.42,-76.991,-57.155,-49.221,-47.634,-47.521,-47.467
1521.44,-76.778,-57.171,-49.203,-47.597,-47.492,-47.437
1521.46,-77.627,-57.199,-49.173,-47.567,-47.461,-47.398
1521.48,-76.473,-57.145,-49.134,-47.508,-47.419,-47.348
1521.5,-75.956,-57.112,-49.099,-47.469,-47.356,-47.331
1521.52,-77.614,-57.084,-49.064,-47.448,-47.333,-47.262
1521.54,-76.938,-57.1,-49.04,-47.413,-47.309,-47.231
1521.56,-76.98,-57.038,-49.009,-47.358,-47.254,-47.223
1521.58,-76.162,-56.997,-48.966,-47.309,-47.22,-47.178
1521.6,-77.157,-56.986,-48.926,-47.277,-47.199,-47.146
1521.62,-77.685,-56.935,-48.895,-47.23,-47.153,-47.122
1521.64,-76.852,-56.894,-48.858,-47.178,-47.107,-47.068
1521.66,-77.751,-56.847,-48.84,-47.151,-47.08,-46.993
1521.68,-76.831,-56.807,-48.805,-47.134,-47.037,-46.96
1521.7,-78.025,-56.788,-48.77,-47.092,-46.994,-46.915
1521.72,-76.968,-56.782,-48.714,-47.051,-46.96,-46.887
1521.74,-76.825,-56.734,-48.68,-47.019,-46.901,-46.86
1521.76,-76.872,-56.734,-48.65,-46.967,-46.868,-46.796
1521.78,-76.674,-56.689,-48.608,-46.941,-46.844,-46.753
1521.8,-77.225,-56.64,-48.564,-46.901,-46.806,-46.714
1521.82,-76.793,-56.631,-48.532,-46.839,-46.765,-46.668
1521.84,-77.174,-56.58,-48.522,-46.819,-46.721,-46.634
1521.86,-77.898,-56.553,-48.475,-46.768,-46.675,-46.602
1521.88,-77.555,-56.513,-48.441,-46.735,-46.64,-46.572
1521.9,-76.64,-56.451,-48.403,-46.697,-46.612,-46.517
1521.92,-75.733,-56.4,-48.367,-46.668,-46.567,-46.473
1521.94,-77.358,-56.402,-48.322,-46.625,-46.525,-46.432
1521.96,-77.471,-56.408,-48.291,-46.585,-46.488,-46.392
1521.98,-77.415,-56.352,-48.251,-46.538,-46.431,-46.355
1522.0,-76.494,-56.301,-48.206,-46.503,-46.381,-46.333
1522.02,-76.639,-56.301,-48.16,-46.468,-46.334,-46.273
1522.04,-78.179,-56.278,-48.12,-46.433,-46.301,-46.232
1522.06,-76.759,-56.296,-48.082,-46.381,-46.289,-46.189
1522.08,-76.428,-56.283,-48.045,-46.339,-46.24,-46.148
1522.1,-76.58,-56.274,-48.021,-46.298,-46.186,-46.106
1522.12,-76.693,-56.247,-47.982,-46.254,-46.136,-46.083
1522.14,-77.708,-56.216,-47.938,-46.209,-46.107,-46.034
1522.16,-76.735,-56.198,-47.904,-46.178,-46.062,-45.987
1522.18,-77.278,-56.21,-47.858,-46.131,-46.021,-45.944
1522.2,-76.869,-56.201,-47.824,-46.086,-45.965,-45.926
1522.22,-77.184,-56.204,-47.786,-46.053,-45.936,-45.869
1522.24,-75.93,-56.172,-47.745,-46.013,-45.883,-45.822
1522.26,-76.659,-56.185,-47.7,-45.972,-45.848,-45.791
1522.28,-76.88,-56.137,-47.666,-45.92,-45.805,-45.746
1522.3,-77.407,-56.089,-47.627,-45.884,-45.761,-45.728
1522.32,-78.043,-56.076,-47.568,-45.831,-45.742,-45.656
1522.34,-75.971,-56.044,-47.523,-45.793,-45.692,-45.634
1522.36,-76.581,-55.997,-47.492,-45.75,-45.636,-45.59
1522.38,-78.634,-56.009,-47.469,-45.71,-45.602,-45.541
1522.4,-76.486,-56.031,-47.428,-45.671,-45.568,-45.51
1522.42,-78.041,-55.986,-47.397,-45.623,-45.512,-45.462
1522.44,-76.211,-55.933,-47.349,-45.587,-45.456,-45.417
1522.46,-76.947,-55.921,-47.317,-45.542,-45.426,-45.395
1522.48,-77.096,-55.909,-47.292,-45.503,-45.391,-45.349
1522.5,-76.141,-55.862,-47.252,-45.456,-45.332,-45.314
1522.52,-77.898,-55.83,-47.205,-45.408,-45.306,-45.251
1522.54,-78.568,-55.816,-47.167,-45.367,-45.278,-45.195
1522.56,-76.898,-55.754,-47.131,-45.326,-45.222,-45.157
1522.58,-76.132,-55.71,-47.104,-45.294,-45.186,-45.112
1522.6,-78.241,-55.669,-47.073,-45.237,-45.148,-45.065
1522.62,-76.776,-55.62,-47.036,-45.211,-45.108,-45.029
1522.64,-77.182,-55.626,-47.0,-45.167,-45.07,-44.98
1522.66,-77.727,-55.579,-46.942,-45.124,-45.027,-44.94
1522.68,-76.796,-55.545,-46.907,-45.078,-44.97,-44.918
1522.7,-76.756,-55.546,-46.869,-45.041,-44.931,-44.862
1522.72,-79.411,-55.508,-46.83,-45.002,-44.889,-44.815
1522.74,-77.455,-55.475,-46.79,-44.953,-44.85,-44.768
1522.76,-77.106,-55.453,-46.758,-44.915,-44.808,-44.725
1522.78,-77.21,-55.387,-46.738,-44.868,-44.763,-44.68
1522.8,-76.792,-55.347,-46.694,-44.825,-44.713,-44.638
1522.82,-77.759,-55.32,-46.65,-44.779,-44.683,-44.6
1522.84,-77.696,-55.276,-46.611,-44.738,-44.643,-44.556
1522.86,-76.161,-55.231,-46.577,-44.7,-44.6,-44.511
1522.88,-77.597,-55.239,-46.528,-44.665,-44.557,-44.466
1522.9,-76.425,-55.227,-46.493,-44.617,-44.514,-44.424
1522.92,-78.208,-55.159,-46.456,-44.578,-44.459,-44.384
1522.94,-76.385,-55.146,-46.419,-44.534,-44.413,-44.35
1522.96,-78.2,-55.135,-46.374,-44.497,-44.366,-44.302
1522.98,-76.966,-55.116,-46.327,-44.452,-44.325,-44.265
1523.0,-76.357,-55.132,-46.287,-44.409,-44.306,-44.212
1523.02,-76.95,-55.13,-46.246,-44.363,-44.261,-44.174
1523.04,-77.391,-55.118,-46.222,-44.315,-44.214,-44.132
1523.06,-77.594,-55.096,-46.179,-44.269,-44.153,-44.085
1523.08,-76.528,-55.048,-46.145,-44.237,-44.121,-44.04
1523.1,-77.329,-55.047,-46.108,-44.199,-44.076,-43.997
1523.12,-78.605,-55.05,-46.058,-44.15,-44.041,-43.955
1523.14,-77.57,-55.051,-46.014,-44.104,-43.986,-43.914
1523.16,-76.55,-55.057,-45.974,-44.063,-43.947,-43.872
1523.18,-78.213,-55.041,-45.932,-44.023,-43.901,-43.83
1523.2,-77.123,-55.026,-45.889,-43.98,-43.86,-43.787
1523.22,-76.258,-54.971,-45.856,-43.933,-43.812,-43.744
1523.24,-78.302,-54.947,-45.821,-43.885,-43.775,-43.711
1523.26,-76.253,-54.929,-45.773,-43.849,-43.744,-43.677
1523.28,-77.29,-54.892,-45.734,-43.806,-43.696,-43.62
1523.3,-78.268,-54.867,-45.702,-43.758,-43.645,-43.588
1523.32,-77.613,-54.888,-45.657,-43.715,-43.609,-43.539
1523.34,-77.932,-54.888,-45.622,-43.676,-43.564,-43.495
1523.36,-76.554,-54.83,-45.58,-43.63,-43.51,-43.443
1523.38,-78.739,-54.797,-45.539,-43.585,-43.458,-43.411
1523.4,-76.966,-54.794,-45.514,-43.533,-43.421,-43.357
1523.42,-78.046,-54.767,-45.49,-43.5,-43.388,-43.314
1523.44,-77.149,-54.738,-45.451,-43.456,-43.34,-43.288
1523.46,-77.67,-54.711,-45.406,-43.408,-43.31,-43.23
1523.48,-78.229,-54.692,-45.369,-43.363,-43.261,-43.188
1523.5,-76.501,-54.637,-45.327,-43.322,-43.218,-43.162
1523.52,-77.978,-54.582,-45.298,-43.283,-43.172,-43.108
1523.54,-77.285,-54.549,-45.272,-43.246,-43.135,-43.057
1523.56,-77.132,-54.496,-45.232,-43.202,-43.092,-43.017
1523.58,-78.193,-54.501,-45.194,-43.163,-43.054,-42.972
1523.6,-77.124,-54.466,-45.157,-43.113,-43.006,-42.935
1523.62,-77.996,-54.445,-45.115,-43.075,-42.964,-42.899
1523.64,-77.259,-54.452,-45.076,-43.034,-42.918,-42.849
1523.66,-77.321,-54.391,-45.039,-42.987,-42.877,-42.805
1523.68,-77.256,-54.362,-45.001,-42.946,-42.841,-42.765
1523.7,-77.538,-54.356,-44.969,-42.911,-42.8,-42.72
1523.72,-79.227,-54.291,-44.941,-42.862,-42.75,-42.677
1523.74,-77.098,-54.242,-44.893,-42.82,-42.714,-42.637
1523.76,-77.791,-54.222,-44.863,-42.781,-42.67,-42.593
1523.78,-77.679,-54.16,-44.831,-42.736,-42.628,-42.556
1523.8,-76.57,-54.149,-44.791,-42.693,-42.588,-42.51
1523.82,-76.851,-54.161,-44.733,-42.656,-42.544,-42.472
1523.84,-78.065,-54.122,-44.697,-42.612,-42.504,-42.427
1523.86,-77.522,-54.076,-44.651,-42.569,-42.457,-42.383
1523.88,-75.995,-54.063,-44.612,-42.529,-42.408,-42.344
1523.9,-78.106,-54.047,-44.578,-42.486,-42.363,-42.297
1523.92,-78.23,-54.047,-44.542,-42.445,-42.322,-42.256
1523.94,-78.022,-54.055,-44.506,-42.402,-42.288,-42.215
1523.96,-76.858,-54.064,-44.473,-42.36,-42.247,-42.173
1523.98,-77.156,-54.051,-44.44,-42.317,-42.2,-42.132
1524.0,-77.419,-54.006,-44.4,-42.276,-42.155,-42.089
1524.02,-78.716,-53.991,-44.372,-42.238,-42.116,-42.048
1524.04,-78.512,-53.993,-44.321,-42.197,-42.078,-42.005
1524.06,-78.744,-54.0,-44.277,-42.158,-42.031,-41.966
1524.08,-77.022,-54.023,-44.239,-42.109,-41.985,-41.92
1524.1,-77.541,-53.998,-44.2,-42.064,-41.944,-41.882
1524.12,-77.701,-53.98,-44.162,-42.023,-41.902,-41.843
1524.14,-78.936,-53.962,-44.123,-41.981,-41.859,-41.797
1524.16,-76.777,-53.921,-44.088,-41.937,-41.818,-41.756
1524.18,-77.748,-53.897,-44.055,-41.893,-41.774,-41.714
1524.2,-77.436,-53.881,-44.029,-41.854,-41.738,-41.672
1524.22,-77.352,-53.84,-43.987,-41.813,-41.693,-41.627
1524.24,-78.446,-53.854,-43.941,-41.773,-41.645,-41.585
1524.26,-77.082,-53.871,-43.902,-41.731,-41.606,-41.545
1524.28,-79.375,-53.824,-43.861,-41.691,-41.565,-41.501
1524.3,-78.033,-53.794,-43.824,-41.647,-41.523,-41.462
1524.32,-77.093,-53.771,-43.788,-41.608,-41.479,-41.422
1524.34,-77.655,-53.799,-43.769,-41.568,-41.44,-41.379
1524.36,-77.455,-53.765,-43.732,-41.528,-41.397,-41.335
1524.38,-77.359,-53.735,-43.698,-41.483,-41.352,-41.293
1524.4,-79.591,-53.703,-43.657,-41.441,-41.314,-41.253
1524.42,-78.9,-53.664,-43.616,-41.401,-41.277,-41.215
1524.44,-76.706,-53.612,-43.584,-41.359,-41.231,-41.174
1524.46,-78.352,-53.584,-43.564,-41.319,-41.192,-41.131
1524.48,-77.176,-53.53,-43.532,-41.286,-41.152,-41.089
1524.5,-79.411,-53.505,-43.495,-41.244,-41.11,-41.043
1524.52,-77.711,-53.487,-43.433,-41.199,-41.067,-40.998
1524.54,-77.945,-53.451,-43.418,-41.159,-41.024,-40.958
1524.56,-77.822,-53.46,-43.388,-41.12,-40.984,-40.918
1524.58,-77.515,-53.457,-43.355,-41.081,-40.948,-40.878
1524.6,-77.225,-53.412,-43.324,-41.044,-40.91,-40.837
1524.62,-77.212,-53.39,-43.3,-41.002,-40.87,-40.797
1524.64,-77.752,-53.337,-43.246,-40.961,-40.829,-40.755
1524.66,-78.45,-53.29,-43.214,-40.918,-40.783,-40.71
1524.68,-77.099,-53.264,-43.174,-40.876,-40.744,-40.668
1524.7,-78.322,-53.213,-43.137,-40.835,-40.703,-40.627
1524.72,-77.034,-53.174,-43.112,-40.798,-40.662,-40.584
1524.74,-77.922,-53.175,-43.068,-40.758,-40.623,-40.541
1524.76,-78.954,-53.17,-43.021,-40.719,-40.585,-40.502
1524.78,-77.597,-53.114,-42.985,-40.678,-40.546,-40.463
1524.8,-77.016,-53.091,-42.94,-40.638,-40.501,-40.419
1524.82,-77.243,-53.098,-42.897,-40.597,-40.456,-40.379
1524.84,-78.651,-53.078,-42.865,-40.557,-40.416,-40.336
1524.86,-77.927,-53.084,-42.829,-40.518,-40.375,-40.294
1524.88,-78.799,-53.089,-42.808,-40.478,-40.338,-40.255
1524.9,-78.877,-53.106,-42.769,-40.434,-40.295,-40.212
1524.92,-78.11,-53.058,-42.736,-40.394,-40.255,-40.172
1524.94,-77.386,-53.05,-42.698,-40.352,-40.214,-40.131
1524.96,-77.732,-53.035,-42.664,-40.308,-40.173,-40.089
1524.98,-77.421,-53.039,-42.61,-40.27,-40.134,-40.05
1525.0,-78.687,-53.062,-42.577,-40.229,-40.091,-40.009
1525.02,-78.193,-53.066,-42.533,-40.19,-40.05,-39.967
1525.04,-77.71,-53.033,-42.49,-40.148,-40.009,-39.925
1525.06,-77.245,-53.038,-42.464,-40.104,-39.967,-39.883
1525.08,-77.557,-52.997,-42.422,-40.06,-39.922,-39.84
1525.1,-77.564,-52.968,-42.394,-40.015,-39.879,-39.798
1525.12,-78.224,-52.946,-42.371,-39.979,-39.842,-39.759
1525.14,-77.524,-52.927,-42.338,-39.94,-39.801,-39.719
1525.16,-78.268,-52.911,-42.289,-39.899,-39.761,-39.677
1525.18,-78.857,-52.924,-42.247,-39.859,-39.719,-39.639
1525.2,-77.472,-52.916,-42.213,-39.817,-39.678,-39.597
1525.22,-78.288,-52.874,-42.17,-39.778,-39.64,-39.557
1525.24,-79.558,-52.869,-42.141,-39.737,-39.601,-39.52
1525.26,-77.321,-52.858,-42.115,-39.694,-39.561,-39.48
1525.28,-77.566,-52.876,-42.099,-39.656,-39.52,-39.441
1525.3,-79.07,-52.853,-42.063,-39.617,-39.48,-39.401
1525.32,-78.186,-52.796,-42.024,-39.574,-39.439,-39.363
1525.34,-80.299,-52.763,-41.982,-39.534,-39.399,-39.324
1525.36,-78.896,-52.715,-41.954,-39.497,-39.364,-39.288
1525.38,-77.528,-52.665,-41.92,-39.456,-39.323,-39.249
1525.4,-78.785,-52.63,-41.905,-39.416,-39.285,-39.211
1525.42,-78.065,-52.584,-41.866,-39.381,-39.247,-39.17
1525.44,-77.91,-52.576,-41.831,-39.34,-39.204,-39.127
1525.46,-79.891,-52.538,-41.799,-39.299,-39.163,-39.087
1525.48,-78.527,-52.517,-41.758,-39.259,-39.12,-39.046
1525.5,-77.894,-52.534,-41.725,-39.219,-39.08,-39.004
1525.52,-78.827,-52.51,-41.684,-39.178,-39.036,-38.961
1525.54,-78.259,-52.478,-41.662,-39.138,-38.995,-38.919
1525.56,-77.29,-52.444,-41.616,-39.099,-38.957,-38.878
1525.58,-79.009,-52.393,-41.59,-39.055,-38.914,-38.836
1525.6,-78.134,-52.341,-41.55,-39.013,-38.871,-38.796
1525.62,-78.414,-52.312,-41.506,-38.977,-38.832,-38.757
1525.64,-77.578,-52.261,-41.485,-38.94,-38.794,-38.717
1525.66,-78.805,-52.243,-41.449,-38.902,-38.754,-38.677
1525.68,-78.182,-52.258,-41.4,-38.86,-38.714,-38.635
1525.7,-80.09,-52.225,-41.354,-38.818,-38.67,-38.592
1525.72,-77.532,-52.172,-41.321,-38.776,-38.629,-38.549
1525.74,-77.693,-52.177,-41.278,-38.734,-38.581,-38.508
1525.76,-77.44,-52.168,-41.25,-38.696,-38.538,-38.467
1525.78,-78.408,-52.166,-41.21,-38.656,-38.497,-38.425
1525.8,-77.362,-52.163,-41.18,-38.617,-38.461,-38.385
1525.82,-77.763,-52.185,-41.142,-38.573,-38.416,-38.342
1525.84,-80.139,-52.17,-41.114,-38.531,-38.374,-38.3
1525.86,-77.855,-52.152,-41.067,-38.494,-38.334,-38.261
1525.88,-78.889,-52.122,-41.048,-38.452,-38.293,-38.219
1525.9,-77.254,-52.121,-40.999,-38.415,-38.258,-38.181
1525.92,-78.752,-52.136,-40.949,-38.376,-38.213,-38.139
1525.94,-79.936,-52.147,-40.924,-38.337,-38.17,-38.1
1525.96,-77.194,-52.136,-40.872,-38.297,-38.127,-38.062
1525.98,-78.085,-52.119,-40.852,-38.264,-38.092,-38.027
1526.0,-78.123,-52.111,-40.814,-38.23,-38.056,-37.988
1526.02,-78.451,-52.083,-40.778,-38.191,-38.016,-37.945
1526.04,-78.992,-52.05,-40.749,-38.149,-37.978,-37.908
1526.06,-78.749,-52.023,-40.711,-38.107,-37.944,-37.867
1526.08,-77.775,-52.012,-40.681,-38.067,-37.903,-37.828
1526.1,-77.489,-52.006,-40.645,-38.036,-37.862,-37.787
1526.12,-77.176,-52.019,-40.614,-37.997,-37.827,-37.749
1526.14,-79.206,-51.982,-40.574,-37.955,-37.784,-37.706
1526.16,-78.399,-51.968,-40.533,-37.919,-37.741,-37.665
1526.18,-78.023,-51.935,-40.505,-37.876,-37.697,-37.632
1526.2,-78.674,-51.956,-40.476,-37.83,-37.66,-37.593
1526.22,-77.793,-51.97,-40.449,-37.79,-37.62,-37.551
1526.24,-79.265,-51.921,-40.416,-37.75,-37.57,-37.507
1526.26,-78.107,-51.87,-40.372,-37.703,-37.528,-37.455
1526.28,-80.709,-51.84,-40.341,-37.663,-37.497,-37.417
1526.3,-77.744,-51.781,-40.312,-37.632,-37.46,-37.386
1526.32,-77.926,-51.74,-40.284,-37.587,-37.422,-37.348
1526.34,-79.252,-51.699,-40.259,-37.563,-37.39,-37.308
1526.36,-79.515,-51.674,-40.236,-37.53,-37.356,-37.26
1526.38,-77.963,-51.655,-40.2,-37.495,-37.323,-37.226
1526.4,-79.043,-51.626,-40.172,-37.459,-37.281,-37.186
1526.42,-78.205,-51.635,-40.142,-37.417,-37.236,-37.144
1526.44,-78.874,-51.636,-40.106,-37.377,-37.199,-37.103
1526.46,-78.49,-51.594,-40.074,-37.338,-37.162,-37.06
1526.48,-78.101,-51.552,-40.034,-37.303,-37.126,-37.018
1526.5,-79.526,-51.513,-40.009,-37.262,-37.092,-36.979
1526.52,-78.058,-51.444,-39.977,-37.224,-37.045,-36.939
1526.54,-79.387,-51.414,-39.918,-37.182,-37.009,-36.9
1526.56,-80.205,-51.366,-39.897,-37.146,-36.971,-36.861
1526.58,-78.541,-51.331,-39.877,-37.11,-36.932,-36.821
1526.6,-77.554,-51.349,-39.826,-37.066,-36.893,-36.775
1526.62,-79.381,-51.342,-39.768,-37.028,-36.851,-36.734
1526.64,-77.047,-51.298,-39.757,-36.992,-36.798,-36.696
1526.66,-79.308,-51.266,-39.712,-36.951,-36.755,-36.65
1526.68,-78.897,-51.261,-39.68,-36.916,-36.723,-36.612
1526.7,-77.99,-51.246,-39.647,-36.875,-36.683,-36.571
1526.72,-77.723,-51.26,-39.62,-36.836,-36.645,-36.533
1526.74,-78.483,-51.257,-39.58,-36.801,-36.623,-36.497
1526.76,-76.9,-51.278,-39.561,-36.764,-36.576,-36.458
1526.78,-80.329,-51.249,-39.504,-36.719,-36.53,-36.416
1526.8,-79.611,-51.221,-39.486,-36.68,-36.486,-36.372
1526.82,-77.252,-51.214,-39.456,-36.641,-36.455,-36.33
1526.84,-79.055,-51.213,-39.395,-36.609,-36.422,-36.288
1526.86,-77.23,-51.222,-39.354,-36.568,-36.374,-36.249
1526.88,-80.222,-51.247,-39.331,-36.525,-36.329,-36.23
1526.9,-78.36,-51.233,-39.285,-36.481,-36.292,-36.188
1526.92,-78.07,-51.224,-39.261,-36.448,-36.252,-36.145
1526.94,-78.989,-51.197,-39.212,-36.397,-36.213,-36.088
1526.96,-77.883,-51.172,-39.188,-36.351,-36.163,-36.055
1526.98,-79.361,-51.134,-39.158,-36.3,-36.129,-36.022
1527.0,-78.084,-51.122,-39.124,-36.26,-36.102,-35.978
1527.02,-78.907,-51.113,-39.091,-36.23,-36.058,-35.934
1527.04,-77.284,-51.126,-39.049,-36.19,-36.009,-35.903
1527.06,-80.383,-51.102,-39.024,-36.147,-35.973,-35.855
1527.08,-80.212,-51.079,-38.985,-36.107,-35.941,-35.816
1527.1,-78.295,-51.064,-38.959,-36.078,-35.895,-35.775
1527.12,-78.598,-51.065,-38.916,-36.04,-35.841,-35.738
1527.14,-78.025,-51.052,-38.905,-35.983,-35.801,-35.696
1527.16,-78.595,-50.999,-38.866,-35.95,-35.765,-35.658
1527.18,-78.894,-50.961,-38.831,-35.911,-35.736,-35.611
1527.2,-79.927,-50.934,-38.8,-35.856,-35.708,-35.558
1527.22,-80.494,-50.896,-38.763,-35.821,-35.669,-35.55
1527.24,-78.839,-50.841,-38.732,-35.783,-35.613,-35.518
1527.26,-78.137,-50.816,-38.721,-35.753,-35.58,-35.482
1527.28,-77.312,-50.775,-38.683,-35.723,-35.549,-35.433
1527.3,-79.695,-50.767,-38.658,-35.686,-35.499,-35.37
1527.32,-79.025,-50.728,-38.626,-35.64,-35.47,-35.334
1527.34,-79.499,-50.714,-38.603,-35.604,-35.416,-35.3
1527.36,-77.638,-50.733,-38.573,-35.562,-35.382,-35.268
1527.38,-80.183,-50.68,-38.534,-35.523,-35.332,-35.223
1527.4,-78.679,-50.643,-38.49,-35.476,-35.302,-35.189
1527.42,-79.324,-50.615,-38.461,-35.434,-35.25,-35.146
1527.44,-78.067,-50.559,-38.441,-35.396,-35.213,-35.104
1527.46,-79.564,-50.51,-38.386,-35.351,-35.157,-35.073
1527.48,-78.82,-50.473,-38.33,-35.3,-35.12,-35.028
1527.5,-79.371,-50.425,-38.327,-35.263,-35.07,-34.988
1527.52,-77.482,-50.418,-38.28,-35.208,-35.03,-34.93
1527.54,-80.702,-50.432,-38.216,-35.152,-34.977,-34.877
1527.56,-77.817,-50.389,-38.189,-35.116,-34.928,-34.837
1527.58,-78.245,-50.353,-38.16,-35.065,-34.854,-34.785
1527.6,-79.732,-50.348,-38.118,-35.026,-34.812,-34.74
1527.62,-79.673,-50.335,-38.084,-34.983,-34.757,-34.689
1527.64,-79.441,-50.34,-38.062,-34.944,-34.725,-34.641
1527.66,-78.152,-50.34,-38.015,-34.904,-34.684,-34.599
1527.68,-77.631,-50.358,-37.984,-34.858,-34.658,-34.55
1527.7,-78.43,-50.349,-37.952,-34.802,-34.6,-34.527
1527.72,-78.477,-50.344,-37.893,-34.761,-34.531,-34.465
1527.74,-78.363,-50.335,-37.89,-34.733,-34.48,-34.428
1527.76,-79.068,-50.335,-37.836,-34.678,-34.456,-34.378
1527.78,-79.755,-50.324,-37.775,-34.65,-34.406,-34.327
1527.8,-78.069,-50.349,-37.751,-34.609,-34.355,-34.281
1527.82,-78.678,-50.342,-37.704,-34.551,-34.284,-34.259
1527.84,-78.455,-50.334,-37.677,-34.519,-34.254,-34.228
1527.86,-79.447,-50.324,-37.645,-34.463,-34.202,-34.189
1527.88,-78.534,-50.284,-37.613,-34.422,-34.15,-34.109
1527.9,-78.436,-50.248,-37.579,-34.361,-34.1,-34.075
1527.92,-78.826,-50.234,-37.537,-34.307,-34.092,-34.049
1527.94,-79.109,-50.233,-37.509,-34.304,-34.046,-33.991
1527.96,-80.187,-50.24,-37.473,-34.25,-33.976,-33.95
1527.98,-78.372,-50.228,-37.44,-34.181,-33.928,-33.9
1528.0,-77.304,-50.187,-37.387,-34.146,-33.901,-33.822
1528.02,-77.948,-50.188,-37.332,-34.098,-33.837,-33.784
1528.04,-78.956,-50.158,-37.319,-34.067,-33.769,-33.722
1528.06,-79.788,-50.172,-37.296,-34.011,-33.702,-33.676
1528.08,-79.421,-50.129,-37.269,-33.979,-33.689,-33.639
1528.1,-77.438,-50.095,-37.244,-33.922,-33.654,-33.601
1528.12,-79.917,-50.045,-37.193,-33.888,-33.596,-33.528
1528.14,-78.281,-50.022,-37.153,-33.821,-33.586,-33.483
1528.16,-80.552,-49.982,-37.125,-33.767,-33.531,-33.468
1528.18,-78.373,-49.95,-37.102,-33.727,-33.466,-33.424
1528.2,-79.151,-49.902,-37.07,-33.715,-33.449,-33.377
1528.22,-79.719,-49.893,-37.054,-33.676,-33.407,-33.285
1528.24,-78.351,-49.857,-37.001,-33.636,-33.36,-33.215
1528.26,-78.126,-49.851,-36.984,-33.571,-33.309,-33.16
1528.28,-78.558,-49.855,-36.969,-33.538,-33.263,-33.123
1528.3,-78.421,-49.814,-36.932,-33.509,-33.233,-33.089
1528.32,-78.598,-49.773,-36.886,-33.48,-33.186,-33.021
1528.34,-79.892,-49.731,-36.846,-33.441,-33.169,-32.986
1528.36,-78.899,-49.701,-36.836,-33.382,-33.119,-32.936
1528.38,-79.338,-49.641,-36.8,-33.332,-33.084,-32.908
1528.4,-80.134,-49.629,-36.736,-33.296,-33.027,-32.838
1528.42,-78.574,-49.585,-36.731,-33.251,-32.936,-32.774
1528.44,-78.157,-49.568,-36.702,-33.22,-32.929,-32.724
1528.46,-79.065,-49.581,-36.649,-33.194,-32.907,-32.67
1528.48,-79.653,-49.559,-36.592,-33.142,-32.875,-32.638
1528.5,-78.938,-49.502,-36.586,-33.105,-32.804,-32.593
1528.52,-77.291,-49.487,-36.532,-33.048,-32.738,-32.545
1528.54,-79.723,-49.479,-36.503,-33.01,-32.705,-32.514
1528.56,-78.342,-49.483,-36.479,-32.967,-32.689,-32.469
1528.58,-77.451,-49.47,-36.448,-32.932,-32.647,-32.425
1528.6,-80.281,-49.495,-36.408,-32.89,-32.637,-32.382
1528.62,-77.362,-49.501,-36.409,-32.835,-32.597,-32.352
1528.64,-79.3,-49.486,-36.345,-32.801,-32.525,-32.305
1528.66,-78.941,-49.476,-36.34,-32.759,-32.505,-32.279
1528.68,-79.749,-49.477,-36.291,-32.73,-32.462,-32.24
1528.7,-77.824,-49.476,-36.226,-32.682,-32.434,-32.186
1528.72,-78.533,-49.496,-36.204,-32.616,-32.367,-32.134
1528.74,-79.466,-49.509,-36.157,-32.594,-32.309,-32.121
1528.76,-77.413,-49.5,-36.122,-32.549,-32.263,-32.096
1528.78,-79.766,-49.493,-36.092,-32.493,-32.211,-32.057
1528.8,-79.127,-49.475,-36.046,-32.439,-32.158,-32.003
1528.82,-79.492,-49.428,-36.022,-32.379,-32.101,-31.924
1528.84,-79.155,-49.403,-35.958,-32.314,-32.057,-31.916
1528.86,-78.481,-49.416,-35.924,-32.26,-32.05,-31.869
1528.88,-79.276,-49.412,-35.92,-32.227,-31.972,-31.834
1528.9,-78.475,-49.417,-35.883,-32.171,-31.911,-31.749
1528.92,-83.217,-49.391,-35.834,-32.126,-31.882,-31.706
1528.94,-79.98,-49.381,-35.794,-32.071,-31.848,-31.662
1528.96,-77.708,-49.359,-35.788,-32.014,-31.761,-31.629
1528.98,-81.615,-49.354,-35.733,-31.952,-31.672,-31.57
1529.0,-77.878,-49.333,-35.732,-31.931,-31.643,-31.526
1529.02,-80.101,-49.285,-35.694,-31.862,-31.592,-31.479
1529.04,-77.796,-49.235,-35.647,-31.803,-31.51,-31.472
1529.06,-80.45,-49.219,-35.62,-31.753,-31.521,-31.381
1529.08,-79.295,-49.184,-35.575,-31.693,-31.475,-31.402
1529.1,-78.522,-49.14,-35.554,-31.635,-31.398,-31.376
1529.12,-78.111,-49.125,-35.558,-31.604,-31.381,-31.357
1529.14,-79.269,-49.094,-35.513,-31.597,-31.353,-31.25
1529.16,-79.303,-49.067,-35.478,-31.55,-31.286,-31.209
1529.18,-78.602,-49.045,-35.435,-31.497,-31.238,-31.169
1529.2,-79.363,-49.035,-35.422,-31.427,-31.177,-31.095
1529.22,-79.688,-49.027,-35.386,-31.371,-31.078,-31.16
1529.24,-79.897,-48.974,-35.333,-31.283,-31.097,-31.106
1529.26,-78.135,-48.924,-35.285,-31.266,-31.038,-30.962
1529.28,-78.219,-48.916,-35.275,-31.218,-31.028,-31.012
1529.3,-79.102,-48.869,-35.244,-31.226,-30.994,-30.952
1529.32,-78.732,-48.84,-35.165,-31.165,-30.945,-30.963
1529.34,-78.353,-48.798,-35.149,-31.077,-30.901,-30.908
1529.36,-79.922,-48.769,-35.131,-31.1,-30.832,-30.816
1529.38,-80.016,-48.776,-35.061,-31.031,-30.739,-30.889
1529.4,-77.731,-48.773,-35.003,-30.988,-30.65,-30.681
1529.42,-78.946,-48.738,-34.997,-30.872,-30.623,-30.619
1529.44,-79.389,-48.706,-34.946,-30.857,-30.496,-30.602
1529.46,-79.582,-48.684,-34.896,-30.854,-30.518,-30.573
1529.48,-77.716,-48.701,-34.865,-30.777,-30.554,-30.496
1529.5,-78.084,-48.694,-34.843,-30.777,-30.509,-30.683
1529.52,-78.467,-48.702,-34.809,-30.735,-30.43,-30.495
1529.54,-78.829,-48.729,-34.822,-30.752,-30.446,-30.541
1529.56,-79.081,-48.715,-34.758,-30.665,-30.349,-30.466
1529.58,-77.768,-48.717,-34.758,-30.542,-30.301,-30.346
1529.6,-78.12,-48.711,-34.708,-30.583,-30.262,-30.429
1529.62,-79.743,-48.719,-34.638,-30.475,-30.159,-30.266
1529.64,-78.703,-48.725,-34.579,-30.377,-30.133,-30.151
1529.66,-78.674,-48.744,-34.562,-30.423,-30.1,-30.236
1529.68,-78.33,-48.743,-34.506,-30.287,-29.981,-30.157
1529.7,-78.166,-48.753,-34.504,-30.281,-29.916,-30.156
1529.72,-79.597,-48.74,-34.468,-30.266,-29.908,-30.16
1529.74,-78.676,-48.706,-34.444,-30.245,-29.993,-30.056
1529.76,-78.602,-48.676,-34.406,-30.268,-29.838,-30.1
1529.78,-78.177,-48.68,-34.351,-30.316,-29.944,-30.042
1529.8,-80.547,-48.689,-34.337,-30.116,-29.893,-29.962
1529.82,-78.73,-48.694,-34.281,-30.22,-29.797,-29.939
1529.84,-80.878,-48.689,-34.273,-29.975,-29.773,-29.756
1529.86,-77.886,-48.65,-34.205,-29.913,-29.683,-29.751
1529.88,-79.003,-48.639,-34.179,-29.973,-29.589,-29.628
1529.9,-80.07,-48.623,-34.163,-29.869,-29.489,-29.654
1529.92,-78.504,-48.608,-34.182,-29.961,-29.49,-29.537
1529.94,-79.056,-48.564,-34.127,-29.839,-29.695,-29.579
1529.96,-79.598,-48.513,-34.075,-29.726,-29.486,-29.449
1529.98,-79.489,-48.483,-34.034,-29.767,-29.404,-29.402
1530.0,-78.98,-48.474,-34.002,-29.64,-29.517,-29.311
1530.02,-77.819,-48.438,-33.953,-29.643,-29.353,-29.36
1530.04,-80.652,-48.427,-33.972,-29.676,-29.362,-29.16
1530.06,-78.541,-48.388,-33.918,-29.588,-29.264,-29.253
1530.08,-81.482,-48.375,-33.892,-29.638,-29.387,-29.1
1530.1,-79.061,-48.353,-33.855,-29.562,-29.321,-29.072
1530.12,-79.49,-48.347,-33.849,-29.672,-29.285,-29.18
1530.14,-79.902,-48.34,-33.822,-29.637,-29.33,-29.032
1530.16,-78.115,-48.281,-33.773,-29.53,-29.284,-29.072
1530.18,-79.356,-48.232,-33.705,-29.599,-29.356,-29.008
1530.2,-79.96,-48.215,-33.699,-29.567,-29.331,-29.021
1530.22,-79.509,-48.177,-33.69,-29.529,-29.36,-29.216
1530.24,-77.45,-48.157,-33.629,-29.481,-29.247,-28.972
1530.26,-80.326,-48.124,-33.627,-29.532,-29.156,-29.083
1530.28,-79.154,-48.096,-33.626,-29.536,-29.068,-28.953
1530.3,-78.616,-48.099,-33.588,-29.531,-29.251,-28.869
1530.32,-79.298,-48.104,-33.498,-29.479,-29.303,-28.851
1530.34,-78.675,-48.063,-33.491,-29.512,-29.284,-28.908
1530.36,-78.798,-48.037,-33.425,-29.324,-29.225,-28.877
1530.38,-78.109,-48.038,-33.389,-29.293,-29.032,-28.776
1530.4,-79.438,-48.028,-33.341,-29.189,-29.076,-28.795
1530.42,-78.193,-48.034,-33.289,-29.11,-28.906,-28.577
1530.44,-78.569,-48.035,-33.281,-29.168,-28.973,-28.655
1530.46,-79.388,-48.057,-33.236,-29.134,-28.949,-28.49
1530.48,-77.896,-48.066,-33.193,-28.986,-28.815,-28.416
1530.5,-78.905,-48.067,-33.178,-28.916,-28.833,-28.17
1530.52,-79.152,-48.064,-33.177,-28.829,-28.729,-28.224
1530.54,-77.933,-48.067,-33.086,-28.991,-28.725,-28.132
1530.56,-77.776,-48.073,-33.015,-28.954,-28.474,-27.667
1530.58,-79.301,-48.101,-32.969,-28.787,-28.533,-28.056
1530.6,-78.176,-48.108,-32.929,-28.737,-28.63,-28.129
1530.62,-80.23,-48.123,-32.908,-28.673,-28.513,-28.213
1530.64,-78.311,-48.116,-32.912,-28.692,-28.493,-28.157
1530.66,-78.626,-48.078,-32.891,-28.643,-28.476,-27.667
1530.68,-78.656,-48.053,-32.831,-28.536,-28.352,-28.026
1530.7,-78.064,-48.052,-32.776,-28.478,-28.464,-26.77
1530.72,-80.159,-48.059,-32.796,-28.473,-28.407,-26.892
1530.74,-77.909,-48.064,-32.817,-28.548,-28.339,-27.788
1530.76,-79.675,-48.07,-32.806,-28.419,-28.355,-27.687
1530.78,-79.011,-48.022,-32.722,-28.343,-28.321,-27.415
1530.8,-78.473,-48.023,-32.7,-28.418,-28.429,-27.116
1530.82,-78.761,-47.996,-32.689,-28.386,-28.374,-28.147
1530.84,-80.265,-48.008,-32.692,-28.291,-28.347,-27.957
1530.86,-78.213,-47.962,-32.667,-28.358,-28.227,-27.876
1530.88,-79.425,-47.932,-32.647,-28.294,-28.357,-27.888
1530.9,-78.657,-47.906,-32.613,-28.409,-28.314,-27.839
1530.92,-80.688,-47.885,-32.595,-28.261,-28.275,-27.527
1530.94,-79.503,-47.851,-32.556,-28.147,-28.352,-27.442
1530.96,-79.069,-47.846,-32.567,-28.136,-28.264,-27.831
1530.98,-76.79,-47.814,-32.573,-28.261,-28.257,-26.939
1531.0,-79.592,-47.798,-32.584,-28.38,-27.902,-28.028
1531.02,-78.404,-47.761,-32.537,-28.211,-28.287,-28.088
1531.04,-80.412,-47.755,-32.556,-28.238,-28.289,-28.16
1531.06,-79.172,-47.764,-32.561,-28.287,-28.244,-28.159
1531.08,-78.984,-47.727,-32.501,-28.411,-28.213,-28.27
1531.1,-78.682,-47.703,-32.421,-28.171,-27.799,-28.232
1531.12,-78.604,-47.671,-32.405,-28.252,-28.084,-28.17
1531.14,-78.832,-47.658,-32.403,-27.817,-28.097,-28.039
1531.16,-78.308,-47.616,-32.34,-28.13,-28.142,-28.188
1531.18,-78.57,-47.608,-32.322,-28.281,-28.069,-27.801
1531.2,-78.141,-47.571,-32.317,-28.368,-27.574,-26.869
1531.22,-79.007,-47.566,-32.261,-28.141,-27.891,-27.891
1531.24,-80.148,-47.573,-32.177,-28.035,-27.931,-27.979
1531.26,-78.042,-47.555,-32.126,-28.002,-27.688,-26.801
1531.28,-78.406,-47.521,-32.104,-28.082,-27.769,-26.969
1531.3,-78.183,-47.515,-32.051,-27.57,-27.657,-28.098
1531.32,-78.412,-47.517,-31.978,-27.634,-27.324,-27.923
1531.34,-78.906,-47.531,-31.965,-27.327,-27.423,-27.785
1531.36,-79.391,-47.529,-31.987,-27.405,-26.735,-27.545
1531.38,-79.157,-47.556,-31.946,-26.235,-26.512,-27.529
1531.4,-77.483,-47.556,-31.952,-26.39,-26.432,-26.814
1531.42,-78.374,-47.562,-31.921,-27.182,-26.924,-27.631
1531.44,-77.879,-47.568,-31.92,-26.994,-25.556,-27.165
1531.46,-78.724,-47.598,-31.88,-27.464,-25.9,-26.619
1531.48,-78.724,-47.61,-31.84,-26.824,-25.403,-26.561
1531.5,-78.164,-47.632,-31.815,-26.483,-26.277,-26.574
1531.52,-77.731,-47.64,-31.82,-26.731,-26.442,-27.091
1531.54,-77.51,-47.65,-31.796,-26.736,-26.935,-27.709
1531.56,-78.805,-47.667,-31.749,-25.983,-25.303,-26.828
1531.58,-78.451,-47.674,-31.775,-26.095,-25.873,-25.457
1531.6,-77.323,-47.647,-31.702,-26.519,-26.698,-26.814
1531.62,-78.17,-47.649,-31.667,-27.707,-26.401,-27.583
1531.64,-78.871,-47.662,-31.677,-27.277,-26.336,-27.503
1531.66,-78.149,-47.661,-31.749,-26.965,-25.874,-27.037
1531.68,-78.253,-47.655,-31.662,-27.45,-27.042,-25.888
1531.7,-78.464,-47.616,-31.647,-27.725,-26.936,-27.076
1531.72,-78.761,-47.618,-31.655,-27.542,-27.112,-27.59
1531.74,-78.433,-47.602,-31.606,-27.512,-27.673,-26.697
1531.76,-78.28,-47.618,-31.645,-27.229,-27.662,-27.07
1531.78,-78.501,-47.587,-31.637,-27.59,-26.717,-26.919
1531.8,-77.776,-47.57,-31.623,-27.758,-27.48,-27.199
1531.82,-82.447,-47.537,-31.585,-27.347,-27.456,-25.974
1531.84,-78.125,-47.539,-31.57,-27.807,-27.659,-26.218
1531.86,-79.234,-47.519,-31.548,-26.589,-27.644,-26.613
1531.88,-77.343,-47.483,-31.574,-26.242,-26.119,-25.544
1531.9,-80.151,-47.456,-31.585,-27.576,-25.799,-26.918
1531.92,-77.985,-47.445,-31.59,-27.314,-26.445,-26.733
1531.94,-78.037,-47.414,-31.564,-26.326,-26.404,-24.234
1531.96,-77.699,-47.413,-31.6,-26.382,-26.705,-26.466
1531.98,-78.674,-47.423,-31.628,-25.563,-25.173,-26.766
1532.0,-78.053,-47.402,-31.634,-25.912,-25.336,-25.451
1532.02,-78.772,-47.4,-31.594,-27.3,-26.557,-26.447
1532.04,-78.338,-47.38,-31.651,-26.744,-25.476,-26.73
1532.06,-78.153,-47.378,-31.711,-26.479,-26.597,-26.098
1532.08,-78.606,-47.344,-31.676,-25.977,-26.502,-25.503
1532.1,-79.736,-47.314,-31.704,-23.832,-25.291,-23.501
1532.12,-79.28,-47.297,-31.753,-25.244,-24.569,-24.369
1532.14,-78.342,-47.31,-31.757,-26.92,-26.765,-26.882
1532.16,-78.454,-47.305,-31.738,-25.329,-27.543,-26.317
1532.18,-77.171,-47.312,-31.722,-26.831,-27.087,-25.879
1532.2,-79.277,-47.292,-31.705,-27.066,-27.803,-26.791
1532.22,-77.904,-47.281,-31.72,-26.75,-26.729,-27.072
1532.24,-77.534,-47.29,-31.699,-26.968,-27.438,-26.809
1532.26,-78.586,-47.314,-31.703,-26.472,-27.99,-25.883
1532.28,-78.054,-47.334,-31.745,-26.262,-27.855,-27.169
1532.3,-78.521,-47.357,-31.734,-27.3,-26.971,-27.298
1532.32,-78.054,-47.358,-31.752,-26.178,-27.332,-25.281
1532.34,-77.294,-47.372,-31.742,-26.952,-27.458,-27.263
1532.36,-79.064,-47.373,-31.768,-26.553,-26.78,-27.014
1532.38,-76.841,-47.4,-31.759,-27.568,-27.033,-27.152
1532.4,-79.884,-47.44,-31.761,-26.801,-26.116,-27.217
1532.42,-77.936,-47.47,-31.762,-27.368,-25.275,-24.261
1532.44,-77.264,-47.468,-31.752,-27.403,-25.914,-26.545
1532.46,-77.81,-47.478,-31.684,-26.229,-27.221,-24.598
1532.48,-77.332,-47.5,-31.71,-27.006,-27.708,-25.884
1532.5,-78.089,-47.529,-31.78,-26.687,-27.023,-24.697
1532.52,-78.214,-47.521,-31.739,-26.843,-24.878,-25.643
1532.54,-78.411,-47.55,-31.717,-26.284,-26.334,-27.3
1532.56,-78.764,-47.549,-31.802,-26.189,-25.757,-26.455
1532.58,-77.387,-47.534,-31.876,-27.537,-25.392,-26.315
1532.6,-78.214,-47.549,-31.848,-26.786,-25.533,-26.863
1532.62,-78.46,-47.511,-31.828,-27.546,-26.744,-26.985
1532.64,-77.909,-47.506,-31.871,-26.623,-25.626,-24.382
1532.66,-79.909,-47.51,-31.876,-27.63,-26.708,-26.715
1532.68,-76.545,-47.538,-31.91,-26.659,-27.47,-25.983
1532.7,-79.134,-47.5,-31.927,-26.128,-26.514,-25.721
1532.72,-78.603,-47.514,-31.911,-27.372,-27.727,-26.37
1532.74,-78.446,-47.494,-31.899,-27.406,-27.388,-26.693
1532.76,-76.721,-47.483,-31.874,-26.26,-26.085,-27.613
1532.78,-79.868,-47.458,-31.874,-28.125,-26.659,-28.18
1532.8,-77.396,-47.413,-31.971,-27.023,-25.301,-28.18
1532.82,-77.741,-47.412,-31.994,-27.054,-25.782,-25.476
1532.84,-78.607,-47.408,-32.047,-28.082,-26.155,-27.15
1532.86,-77.159,-47.37,-32.042,-27.249,-26.05,-27.545
1532.88,-77.255,-47.371,-32.114,-27.543,-26.477,-28.059
1532.9,-77.943,-47.415,-32.26,-27.071,-27.802,-27.707
1532.92,-77.851,-47.396,-32.204,-28.234,-27.89,-26.947
1532.94,-78.307,-47.408,-32.178,-27.344,-28.206,-25.613
1532.96,-79.001,-47.398,-32.224,-28.07,-27.9,-25.113
1532.98,-77.663,-47.393,-32.288,-28.341,-27.559,-27.344
1533.0,-77.121,-47.355,-32.272,-28.585,-27.698,-28.174
1533.02,-76.981,-47.322,-32.29,-28.426,-27.465,-28.358
1533.04,-77.341,-47.329,-32.347,-28.345,-28.366,-27.911
1533.06,-77.423,-47.352,-32.346,-28.053,-27.461,-28.087
1533.08,-77.474,-47.339,-32.354,-28.108,-28.249,-27.503
1533.1,-77.572,-47.36,-32.363,-26.392,-27.229,-27.214
1533.12,-77.834,-47.352,-32.384,-28.015,-28.375,-26.16
1533.14,-77.094,-47.333,-32.417,-28.357,-28.355,-27.602
1533.16,-79.853,-47.356,-32.387,-28.424,-28.426,-28.575
1533.18,-77.24,-47.399,-32.44,-28.515,-27.965,-28.586
1533.2,-77.32,-47.433,-32.514,-28.092,-27.934,-28.261
1533.22,-76.932,-47.461,-32.503,-28.643,-27.445,-27.952
1533.24,-77.426,-47.455,-32.547,-28.246,-27.61,-28.384
1533.26,-77.815,-47.467,-32.57,-28.085,-28.749,-28.459
1533.28,-79.293,-47.473,-32.606,-28.196,-28.666,-28.681
1533.3,-78.064,-47.518,-32.604,-28.587,-27.66,-28.17
1533.32,-77.099,-47.555,-32.615,-28.736,-26.886,-28.363
1533.34,-78.091,-47.593,-32.664,-28.785,-28.548,-27.801
1533.36,-77.381,-47.595,-32.652,-28.111,-28.482,-28.793
1533.38,-77.431,-47.634,-32.648,-28.349,-27.903,-28.839
1533.4,-77.095,-47.664,-32.732,-28.646,-28.048,-28.963
1533.42,-78.62,-47.697,-32.793,-28.686,-28.7,-28.977
1533.44,-77.051,-47.688,-32.834,-28.993,-28.113,-28.616
1533.46,-78.702,-47.716,-32.837,-29.032,-28.704,-28.649
1533.48,-77.299,-47.751,-32.892,-29.031,-28.021,-29.133
1533.5,-76.861,-47.72,-32.977,-28.643,-29.001,-29.135
1533.52,-77.29,-47.742,-33.012,-28.684,-28.979,-29.076
1533.54,-77.73,-47.719,-33.028,-29.224,-28.321,-29.028
1533.56,-77.591,-47.702,-33.065,-29.421,-29.376,-29.207
1533.58,-77.442,-47.719,-33.156,-29.285,-29.331,-29.499
1533.6,-77.583,-47.781,-33.231,-29.213,-29.411,-29.532
1533.62,-77.375,-47.738,-33.333,-29.417,-29.528,-29.243
1533.64,-77.51,-47.781,-33.366,-29.591,-29.647,-29.641
1533.66,-77.302,-47.769,-33.41,-29.668,-29.316,-29.453
1533.68,-77.936,-47.755,-33.448,-29.707,-29.713,-29.729
1533.7,-78.31,-47.742,-33.486,-29.921,-29.841,-29.856
1533.72,-76.968,-47.698,-33.556,-29.79,-29.776,-29.898
1533.74,-77.721,-47.705,-33.665,-29.852,-29.986,-30.003
1533.76,-77.145,-47.712,-33.703,-30.076,-30.049,-30.08
1533.78,-77.407,-47.693,-33.754,-30.097,-29.965,-30.019
1533.8,-78.021,-47.677,-33.809,-30.277,-30.162,-30.17
1533.82,-77.047,-47.738,-33.906,-30.229,-30.237,-30.237
1533.84,-76.814,-47.721,-33.944,-30.325,-30.393,-30.34
1533.86,-79.095,-47.751,-33.95,-30.379,-30.396,-30.318
1533.88,-76.489,-47.756,-34.018,-30.44,-30.382,-30.361
1533.9,-77.162,-47.746,-34.117,-30.778,-30.488,-30.46
1533.92,-76.569,-47.727,-34.135,-30.863,-30.664,-30.663
1533.94,-77.041,-47.695,-34.205,-30.897,-30.758,-30.743
1533.96,-76.937,-47.724,-34.25,-30.867,-30.793,-30.77
1533.98,-76.442,-47.734,-34.278,-30.981,-30.875,-30.769
1534.0,-76.98,-47.712,-34.296,-30.897,-30.881,-30.767
1534.02,-76.942,-47.733,-34.343,-31.112,-31.046,-30.845
1534.04,-77.539,-47.758,-34.402,-30.997,-31.024,-30.9
1534.06,-76.723,-47.736,-34.411,-31.103,-31.094,-31.03
1534.08,-77.397,-47.774,-34.439,-31.242,-31.173,-31.06
1534.1,-76.482,-47.83,-34.551,-31.194,-31.228,-31.013
1534.12,-77.34,-47.868,-34.573,-31.477,-31.3,-31.072
1534.14,-76.189,-47.895,-34.609,-31.404,-31.229,-31.271
1534.16,-76.268,-47.895,-34.656,-31.449,-31.488,-31.199
1534.18,-76.71,-47.921,-34.748,-31.512,-31.511,-31.361
1534.2,-76.54,-47.934,-34.788,-31.582,-31.563,-31.387
1534.22,-76.33,-47.986,-34.793,-31.619,-31.535,-31.472
1534.24,-76.538,-48.049,-34.868,-31.781,-31.569,-31.433
1534.26,-77.583,-48.088,-34.905,-31.79,-31.654,-31.579
1534.28,-76.236,-48.082,-34.911,-31.851,-31.734,-31.639
1534.3,-76.571,-48.114,-34.996,-31.876,-31.769,-31.693
1534.32,-77.481,-48.142,-35.088,-32.002,-31.823,-31.654
1534.34,-76.924,-48.197,-35.11,-32.12,-31.926,-31.823
1534.36,-75.51,-48.202,-35.144,-32.193,-32.06,-31.946
1534.38,-76.353,-48.238,-35.184,-32.167,-32.146,-32.046
1534.4,-77.297,-48.267,-35.224,-32.279,-32.25,-32.057
1534.42,-76.615,-48.236,-35.287,-32.371,-32.286,-32.134
1534.44,-76.305,-48.25,-35.358,-32.385,-32.387,-32.183
1534.46,-76.039,-48.225,-35.402,-32.489,-32.441,-32.356
1534.48,-76.857,-48.221,-35.462,-32.514,-32.443,-32.424
1534.5,-77.134,-48.242,-35.526,-32.685,-32.576,-32.449
1534.52,-75.853,-48.283,-35.565,-32.681,-32.609,-32.579
1534.54,-76.605,-48.275,-35.645,-32.804,-32.712,-32.58
1534.56,-77.422,-48.325,-35.679,-32.869,-32.721,-32.724
1534.58,-77.153,-48.333,-35.724,-32.837,-32.873,-32.751
1534.6,-76.105,-48.324,-35.753,-32.959,-32.908,-32.793
1534.62,-77.522,-48.324,-35.802,-32.977,-32.922,-32.866
1534.64,-76.098,-48.313,-35.872,-33.023,-33.015,-32.874
1534.66,-76.497,-48.306,-35.938,-33.223,-33.102,-33.036
1534.68,-77.146,-48.305,-35.975,-33.143,-33.094,-33.057
1534.7,-76.361,-48.295,-36.022,-33.228,-33.19,-33.075
1534.72,-76.291,-48.294,-36.058,-33.31,-33.197,-33.157
1534.74,-77.009,-48.322,-36.127,-33.319,-33.31,-33.192
1534.76,-76.537,-48.331,-36.171,-33.429,-33.383,-33.219
1534.78,-76.161,-48.379,-36.209,-33.518,-33.402,-33.314
1534.8,-75.505,-48.384,-36.278,-33.555,-33.506,-33.382
1534.82,-76.745,-48.375,-36.367,-33.624,-33.553,-33.485
1534.84,-76.374,-48.369,-36.38,-33.708,-33.665,-33.571
1534.86,-75.961,-48.367,-36.441,-33.76,-33.669,-33.63
1534.88,-75.856,-48.383,-36.492,-33.881,-33.771,-33.746
1534.9,-75.919,-48.378,-36.53,-33.913,-33.784,-33.82
1534.92,-76.417,-48.363,-36.553,-33.972,-33.87,-33.795
1534.94,-75.768,-48.379,-36.614,-33.98,-33.929,-33.799
1534.96,-76.57,-48.41,-36.656,-33.986,-33.969,-33.894
1534.98,-75.605,-48.431,-36.677,-34.09,-34.07,-33.926
1535.0,-75.639,-48.461,-36.73,-34.097,-34.106,-33.995
1535.02,-75.734,-48.512,-36.818,-34.255,-34.15,-34.082
1535.04,-76.305,-48.553,-36.841,-34.376,-34.187,-34.164
1535.06,-75.798,-48.57,-36.872,-34.34,-34.21,-34.136
1535.08,-75.679,-48.56,-36.927,-34.433,-34.367,-34.212
1535.1,-75.755,-48.586,-36.972,-34.414,-34.358,-34.253
1535.12,-75.184,-48.627,-37.026,-34.489,-34.463,-34.352
1535.14,-75.677,-48.673,-37.05,-34.551,-34.476,-34.37
1535.16,-75.961,-48.73,-37.104,-34.572,-34.502,-34.429
1535.18,-75.799,-48.749,-37.152,-34.645,-34.597,-34.478
1535.2,-75.78,-48.755,-37.198,-34.646,-34.592,-34.506
1535.22,-76.115,-48.789,-37.241,-34.691,-34.639,-34.585
1535.24,-76.13,-48.826,-37.288,-34.79,-34.692,-34.602
1535.26,-75.535,-48.867,-37.329,-34.829,-34.689,-34.648
1535.28,-74.984,-48.882,-37.353,-34.924,-34.751,-34.73
1535.3,-76.194,-48.924,-37.402,-34.967,-34.834,-34.785
1535.32,-76.121,-48.943,-37.445,-35.0,-34.894,-34.841
1535.34,-76.447,-48.937,-37.504,-35.077,-34.972,-34.948
1535.36,-75.464,-48.954,-37.57,-35.139,-35.012,-34.974
1535.38,-75.0,-48.942,-37.595,-35.195,-35.087,-35.027
1535.4,-75.528,-48.948,-37.646,-35.245,-35.111,-35.055
1535.42,-76.53,-48.974,-37.699,-35.301,-35.168,-35.093
1535.44,-75.337,-48.99,-37.741,-35.326,-35.212,-35.136
1535.46,-76.371,-48.995,-37.797,-35.381,-35.268,-35.209
1535.48,-75.275,-49.031,-37.839,-35.45,-35.334,-35.271
1535.5,-75.45,-49.046,-37.893,-35.507,-35.387,-35.336
1535.52,-76.424,-49.03,-37.923,-35.564,-35.457,-35.386
1535.54,-75.234,-49.042,-37.993,-35.615,-35.516,-35.435
1535.56,-75.354,-49.061,-38.038,-35.664,-35.563,-35.492
1535.58,-75.626,-49.05,-38.088,-35.711,-35.617,-35.546
1535.6,-75.284,-49.035,-38.145,-35.773,-35.674,-35.596
1535.62,-75.525,-49.026,-38.167,-35.834,-35.735,-35.65
1535.64,-75.423,-49.035,-38.22,-35.889,-35.791,-35.704
1535.66,-75.318,-49.064,-38.286,-35.946,-35.851,-35.742
1535.68,-74.97,-49.071,-38.313,-36.007,-35.918,-35.807
1535.7,-75.607,-49.1,-38.343,-36.069,-35.971,-35.871
1535.72,-74.968,-49.11,-38.398,-36.132,-36.032,-35.923
1535.74,-74.755,-49.091,-38.466,-36.193,-36.09,-35.976
1535.76,-74.715,-49.112,-38.503,-36.246,-36.152,-36.04
1535.78,-74.76,-49.122,-38.532,-36.291,-36.215,-36.104
1535.8,-75.507,-49.122,-38.591,-36.358,-36.28,-36.163
1535.82,-74.704,-49.124,-38.624,-36.408,-36.311,-36.219
1535.84,-75.209,-49.13,-38.665,-36.466,-36.377,-36.268
1535.86,-74.919,-49.152,-38.714,-36.522,-36.429,-36.308
1535.88,-74.991,-49.177,-38.754,-36.578,-36.479,-36.36
1535.9,-74.797,-49.215,-38.783,-36.614,-36.53,-36.41
1535.92,-74.582,-49.224,-38.834,-36.663,-36.578,-36.463
1535.94,-74.273,-49.254,-38.878,-36.716,-36.624,-36.524
1535.96,-75.136,-49.269,-38.902,-36.764,-36.677,-36.577
1535.98,-74.673,-49.287,-38.931,-36.813,-36.728,-36.629
1536.0,-75.069,-49.298,-38.987,-36.86,-36.788,-36.68
1536.02,-74.97,-49.341,-39.012,-36.902,-36.828,-36.735
1536.04,-74.403,-49.388,-39.061,-36.949,-36.87,-36.781
1536.06,-74.391,-49.418,-39.09,-36.992,-36.914,-36.828
1536.08,-74.516,-49.454,-39.136,-37.036,-36.948,-36.869
1536.1,-75.055,-49.472,-39.18,-37.077,-37.012,-36.913
1536.12,-74.775,-49.492,-39.196,-37.133,-37.053,-36.959
1536.14,-74.614,-49.523,-39.242,-37.174,-37.096,-37.007
1536.16,-74.046,-49.552,-39.282,-37.233,-37.141,-37.057
1536.18,-74.999,-49.572,-39.317,-37.28,-37.181,-37.104
1536.2,-74.236,-49.595,-39.344,-37.316,-37.222,-37.148
1536.22,-74.692,-49.615,-39.372,-37.359,-37.276,-37.195
1536.24,-74.499,-49.629,-39.403,-37.395,-37.317,-37.244
1536.26,-74.486,-49.647,-39.468,-37.429,-37.36,-37.305
1536.28,-75.274,-49.658,-39.513,-37.477,-37.394,-37.349
1536.3,-75.099,-49.66,-39.538,-37.512,-37.429,-37.383
1536.32,-74.222,-49.68,-39.567,-37.558,-37.465,-37.417
1536.34,-74.813,-49.707,-39.615,-37.596,-37.511,-37.46
1536.36,-74.976,-49.699,-39.649,-37.642,-37.547,-37.503
1536.38,-74.429,-49.702,-39.679,-37.68,-37.589,-37.547
1536.4,-74.784,-49.707,-39.713,-37.717,-37.63,-37.6
1536.42,-74.581,-49.732,-39.763,-37.755,-37.675,-37.641
1536.44,-74.434,-49.718,-39.793,-37.799,-37.718,-37.672
1536.46,-74.432,-49.734,-39.829,-37.822,-37.765,-37.721
1536.48,-74.982,-49.754,-39.876,-37.87,-37.801,-37.76
1536.5,-74.396,-49.742,-39.904,-37.919,-37.84,-37.786
1536.52,-74.867,-49.731,-39.954,-37.965,-37.88,-37.854
1536.54,-74.689,-49.722,-39.961,-38.011,-37.926,-37.898
1536.56,-74.483,-49.738,-40.011,-38.053,-37.966,-37.919
1536.58,-74.267,-49.743,-40.061,-38.09,-38.013,-37.947
1536.6,-74.491,-49.745,-40.07,-38.121,-38.048,-37.992
1536.62,-74.443,-49.76,-40.08,-38.159,-38.07,-38.022
1536.64,-74.467,-49.768,-40.126,-38.195,-38.108,-38.057
1536.66,-74.168,-49.759,-40.173,-38.233,-38.141,-38.089
1536.68,-73.6,-49.778,-40.183,-38.265,-38.179,-38.12
1536.7,-74.672,-49.774,-40.201,-38.297,-38.222,-38.16
1536.72,-74.053,-49.765,-40.249,-38.335,-38.256,-38.195
1536.74,-73.613,-49.788,-40.273,-38.372,-38.284,-38.232
1536.76,-74.754,-49.812,-40.308,-38.402,-38.317,-38.261
1536.78,-73.923,-49.797,-40.338,-38.438,-38.356,-38.287
1536.8,-73.892,-49.817,-40.358,-38.471,-38.389,-38.319
1536.82,-73.67,-49.853,-40.378,-38.504,-38.42,-38.349
1536.84,-74.047,-49.854,-40.408,-38.546,-38.442,-38.385
1536.86,-73.851,-49.888,-40.436,-38.582,-38.479,-38.414
1536.88,-73.421,-49.893,-40.458,-38.619,-38.525,-38.45
1536.9,-73.826,-49.911,-40.496,-38.65,-38.555,-38.48
1536.92,-73.382,-49.924,-40.529,-38.683,-38.599,-38.514
1536.94,-74.016,-49.967,-40.548,-38.71,-38.624,-38.553
1536.96,-74.206,-49.996,-40.581,-38.743,-38.653,-38.58
1536.98,-73.489,-50.031,-40.598,-38.769,-38.68,-38.615
1537.0,-73.932,-50.046,-40.63,-38.804,-38.713,-38.645
1537.02,-73.284,-50.075,-40.657,-38.84,-38.742,-38.67
1537.04,-73.854,-50.089,-40.676,-38.869,-38.783,-38.703
1537.06,-73.82,-50.117,-40.702,-38.906,-38.813,-38.734
1537.08,-73.727,-50.125,-40.735,-38.942,-38.844,-38.766
1537.1,-73.701,-50.152,-40.755,-38.972,-38.87,-38.796
1537.12,-73.605,-50.17,-40.761,-39.001,-38.899,-38.828
1537.14,-74.002,-50.172,-40.781,-39.021,-38.94,-38.869
1537.16,-73.658,-50.191,-40.801,-39.042,-38.965,-38.892
1537.18,-73.643,-50.222,-40.857,-39.069,-38.993,-38.932
1537.2,-73.589,-50.204,-40.889,-39.106,-39.019,-38.959
1537.22,-73.735,-50.171,-40.913,-39.129,-39.044,-38.981
1537.24,-73.636,-50.197,-40.916,-39.147,-39.068,-39.008
1537.26,-74.139,-50.22,-40.955,-39.188,-39.099,-39.041
1537.28,-73.289,-50.203,-40.979,-39.195,-39.126,-39.06
1537.3,-73.865,-50.206,-40.995,-39.229,-39.14,-39.091
1537.32,-73.888,-50.222,-41.015,-39.263,-39.174,-39.122
1537.34,-73.81,-50.247,-41.049,-39.278,-39.208,-39.148
1537.36,-73.276,-50.226,-41.071,-39.301,-39.238,-39.171
1537.38,-73.965,-50.235,-41.108,-39.326,-39.27,-39.21
1537.4,-73.601,-50.236,-41.139,-39.354,-39.29,-39.214
1537.42,-73.817,-50.239,-41.155,-39.382,-39.323,-39.242
1537.44,-73.798,-50.216,-41.191,-39.417,-39.343,-39.271
1537.46,-73.463,-50.191,-41.191,-39.442,-39.373,-39.292
1537.48,-73.799,-50.222,-41.225,-39.468,-39.395,-39.315
1537.5,-73.53,-50.207,-41.257,-39.482,-39.418,-39.336
1537.52,-73.818,-50.202,-41.258,-39.506,-39.445,-39.362
1537.54,-73.645,-50.232,-41.279,-39.538,-39.466,-39.386
1537.56,-73.375,-50.227,-41.317,-39.562,-39.49,-39.412
1537.58,-73.265,-50.217,-41.339,-39.582,-39.52,-39.438
1537.6,-73.116,-50.228,-41.346,-39.607,-39.541,-39.465
1537.62,-73.538,-50.225,-41.376,-39.64,-39.574,-39.5
1537.64,-73.562,-50.217,-41.395,-39.659,-39.593,-39.517
1537.66,-73.358,-50.245,-41.407,-39.678,-39.613,-39.542
1537.68,-73.294,-50.258,-41.43,-39.704,-39.634,-39.566
1537.7,-73.26,-50.252,-41.456,-39.724,-39.658,-39.58
1537.72,-73.314,-50.259,-41.455,-39.745,-39.679,-39.602
1537.74,-72.932,-50.266,-41.471,-39.775,-39.701,-39.623
1537.76,-73.016,-50.274,-41.483,-39.788,-39.717,-39.653
1537.78,-73.046,-50.295,-41.502,-39.811,-39.724,-39.667
1537.8,-73.218,-50.305,-41.51,-39.832,-39.755,-39.684
1537.82,-72.49,-50.318,-41.541,-39.857,-39.766,-39.704
1537.84,-72.524,-50.327,-41.558,-39.876,-39.802,-39.726
1537.86,-73.122,-50.355,-41.583,-39.887,-39.823,-39.751
1537.88,-73.442,-50.374,-41.594,-39.907,-39.836,-39.77
1537.9,-72.879,-50.411,-41.614,-39.939,-39.843,-39.799
1537.92,-72.971,-50.425,-41.633,-39.955,-39.873,-39.81
1537.94,-73.539,-50.434,-41.643,-39.975,-39.887,-39.829
1537.96,-72.409,-50.441,-41.652,-39.981,-39.907,-39.844
1537.98,-72.906,-50.484,-41.663,-40.008,-39.923,-39.861
1538.0,-73.233,-50.492,-41.678,-40.019,-39.936,-39.878
1538.02,-73.062,-50.494,-41.696,-40.043,-39.956,-39.9
1538.04,-72.608,-50.51,-41.693,-40.053,-39.978,-39.917
1538.06,-73.128,-50.519,-41.705,-40.074,-40.0,-39.948
1538.08,-73.188,-50.547,-41.732,-40.094,-40.016,-39.961
1538.1,-73.167,-50.547,-41.756,-40.11,-40.027,-39.988
1538.12,-72.941,-50.511,-41.768,-40.135,-40.044,-40.003
1538.14,-73.599,-50.488,-41.796,-40.143,-40.062,-40.017
1538.16,-72.431,-50.511,-41.804,-40.163,-40.089,-40.027
1538.18,-72.965,-50.526,-41.818,-40.186,-40.105,-40.056
1538.2,-73.635,-50.512,-41.842,-40.193,-40.112,-40.066
1538.22,-72.598,-50.523,-41.849,-40.218,-40.127,-40.086
1538.24,-73.241,-50.542,-41.858,-40.234,-40.143,-40.107
1538.26,-73.088,-50.52,-41.87,-40.244,-40.164,-40.111
1538.28,-73.06,-50.5,-41.888,-40.256,-40.184,-40.123
1538.3,-72.854,-50.511,-41.905,-40.266,-40.2,-40.158
1538.32,-72.848,-50.509,-41.929,-40.272,-40.212,-40.166
1538.34,-72.517,-50.52,-41.939,-40.292,-40.227,-40.181
1538.36,-72.664,-50.482,-41.946,-40.313,-40.244,-40.196
1538.38,-72.736,-50.461,-41.954,-40.333,-40.258,-40.212
1538.4,-73.236,-50.478,-41.977,-40.344,-40.253,-40.223
1538.42,-73.105,-50.464,-41.987,-40.359,-40.281,-40.22
1538.44,-72.598,-50.464,-41.994,-40.373,-40.287,-40.236
1538.46,-72.629,-50.481,-42.005,-40.387,-40.305,-40.241
1538.48,-73.011,-50.448,-42.028,-40.39,-40.324,-40.253
1538.5,-72.106,-50.447,-42.034,-40.407,-40.344,-40.265
1538.52,-72.541,-50.444,-42.046,-40.415,-40.338,-40.284
1538.54,-73.31,-50.447,-42.057,-40.435,-40.364,-40.3
1538.56,-72.299,-50.442,-42.073,-40.447,-40.377,-40.314
1538.58,-72.799,-50.447,-42.072,-40.458,-40.391,-40.33
1538.6,-72.614,-50.445,-42.079,-40.473,-40.406,-40.341
1538.62,-72.435,-50.447,-42.087,-40.488,-40.418,-40.347
1538.64,-71.721,-50.456,-42.101,-40.494,-40.432,-40.357
1538.66,-72.621,-50.45,-42.104,-40.509,-40.443,-40.374
1538.68,-72.404,-50.47,-42.119,-40.521,-40.453,-40.383
1538.7,-72.169,-50.482,-42.113,-40.535,-40.447,-40.392
1538.72,-72.538,-50.496,-42.119,-40.544,-40.466,-40.398
1538.74,-72.702,-50.486,-42.143,-40.553,-40.467,-40.406
1538.76,-71.793,-50.506,-42.146,-40.563,-40.489,-40.414
1538.78,-72.264,-50.524,-42.164,-40.572,-40.498,-40.427
1538.8,-72.156,-50.535,-42.162,-40.581,-40.5,-40.445
1538.82,-72.363,-50.562,-42.159,-40.587,-40.509,-40.449
1538.84,-72.757,-50.587,-42.172,-40.593,-40.519,-40.458
1538.86,-71.863,-50.585,-42.175,-40.599,-40.53,-40.462
1538.88,-71.939,-50.615,-42.176,-40.607,-40.536,-40.472
1538.9,-72.471,-50.622,-42.189,-40.622,-40.545,-40.478
1538.92,-72.11,-50.616,-42.178,-40.619,-40.548,-40.498
1538.94,-72.136,-50.606,-42.197,-40.629,-40.556,-40.517
1538.96,-72.546,-50.608,-42.195,-40.636,-40.563,-40.524
1538.98,-72.802,-50.62,-42.204,-40.651,-40.583,-40.526
1539.0,-72.436,-50.653,-42.217,-40.657,-40.587,-40.529
1539.02,-72.013,-50.655,-42.217,-40.663,-40.606,-40.549
1539.04,-72.456,-50.619,-42.232,-40.676,-40.597,-40.552
1539.06,-72.552,-50.6,-42.239,-40.677,-40.603,-40.545
1539.08,-72.084,-50.619,-42.248,-40.683,-40.619,-40.551
1539.1,-71.971,-50.62,-42.253,-40.686,-40.623,-40.564
1539.12,-72.384,-50.616,-42.27,-40.699,-40.631,-40.573
1539.14,-72.613,-50.61,-42.269,-40.701,-40.63,-40.585
1539.16,-72.289,-50.612,-42.271,-40.715,-40.64,-40.594
1539.18,-72.574,-50.577,-42.278,-40.715,-40.646,-40.588
1539.2,-72.344,-50.56,-42.278,-40.723,-40.646,-40.602
1539.22,-72.209,-50.56,-42.298,-40.72,-40.665,-40.612
1539.24,-72.269,-50.555,-42.307,-40.732,-40.668,-40.614
1539.26,-72.354,-50.563,-42.318,-40.729,-40.667,-40.634
1539.28,-72.157,-50.534,-42.309,-40.729,-40.683,-40.641
1539.3,-72.474,-50.531,-42.323,-40.755,-40.687,-40.645
1539.32,-72.405,-50.538,-42.334,-40.764,-40.69,-40.627
1539.34,-72.676,-50.527,-42.335,-40.768,-40.704,-40.635
1539.36,-72.264,-50.52,-42.328,-40.767,-40.703,-40.642
1539.38,-72.177,-50.515,-42.336,-40.767,-40.706,-40.642
1539.4,-71.879,-50.482,-42.352,-40.787,-40.711,-40.646
1539.42,-72.285,-50.483,-42.356,-40.786,-40.722,-40.651
1539.44,-71.875,-50.475,-42.351,-40.787,-40.723,-40.655
1539.46,-71.726,-50.457,-42.358,-40.796,-40.734,-40.661
1539.48,-72.225,-50.47,-42.362,-40.798,-40.738,-40.673
1539.5,-71.847,-50.471,-42.351,-40.804,-40.738,-40.678
1539.52,-72.03,-50.449,-42.36,-40.813,-40.746,-40.683
1539.54,-71.833,-50.454,-42.368,-40.819,-40.753,-40.683
1539.56,-71.812,-50.465,-42.362,-40.823,-40.758,-40.687
1539.58,-71.901,-50.454,-42.357,-40.831,-40.766,-40.703
1539.6,-71.741,-50.477,-42.367,-40.845,-40.769,-40.701
1539.62,-71.991,-50.487,-42.373,-40.846,-40.763,-40.709
1539.64,-71.514,-50.501,-42.375,-40.852,-40.779,-40.718
1539.66,-71.911,-50.498,-42.388,-40.855,-40.773,-40.718
1539.68,-71.903,-50.512,-42.385,-40.859,-40.791,-40.719
1539.7,-71.985,-50.511,-42.389,-40.858,-40.787,-40.72
1539.72,-71.459,-50.529,-42.381,-40.86,-40.776,-40.726
1539.74,-71.721,-50.548,-42.378,-40.861,-40.778,-40.727
1539.76,-71.669,-50.56,-42.384,-40.857,-40.785,-40.728
1539.78,-71.722,-50.568,-42.372,-40.856,-40.789,-40.727
1539.8,-71.92,-50.595,-42.38,-40.865,-40.794,-40.729
1539.82,-71.951,-50.586,-42.382,-40.872,-40.791,-40.733
1539.84,-71.545,-50.57,-42.385,-40.866,-40.789,-40.755
1539.86,-71.858,-50.556,-42.369,-40.869,-40.795,-40.757
1539.88,-71.781,-50.572,-42.365,-40.865,-40.794,-40.757
1539.9,-71.683,-50.57,-42.382,-40.874,-40.799,-40.749
1539.92,-72.47,-50.604,-42.389,-40.884,-40.812,-40.77
1539.94,-71.504,-50.606,-42.388,-40.882,-40.811,-40.772
1539.96,-72.187,-50.588,-42.393,-40.891,-40.805,-40.768
1539.98,-71.824,-50.569,-42.402,-40.886,-40.805,-40.759
1540.0,-71.84,-50.578,-42.399,-40.88,-40.816,-40.768
1540.02,-71.959,-50.567,-42.41,-40.883,-40.815,-40.769
1540.04,-71.603,-50.564,-42.409,-40.89,-40.819,-40.761
1540.06,-71.946,-50.544,-42.405,-40.89,-40.813,-40.778
1540.08,-71.73,-50.537,-42.408,-40.901,-40.821,-40.771
1540.1,-71.697,-50.512,-42.409,-40.897,-40.831,-40.776
1540.12,-71.726,-50.501,-42.414,-40.899,-40.832,-40.784
1540.14,-71.933,-50.493,-42.432,-40.898,-40.836,-40.784
1540.16,-71.812,-50.486,-42.432,-40.908,-40.835,-40.781
1540.18,-71.85,-50.473,-42.431,-40.906,-40.838,-40.801
1540.2,-71.888,-50.458,-42.42,-40.91,-40.836,-40.792
1540.22,-71.736,-50.455,-42.426,-40.917,-40.842,-40.783
1540.24,-71.589,-50.457,-42.428,-40.919,-40.839,-40.782
1540.26,-72.247,-50.438,-42.42,-40.916,-40.844,-40.784
1540.28,-71.672,-50.429,-42.419,-40.909,-40.84,-40.787
1540.3,-71.42,-50.404,-42.418,-40.91,-40.834,-40.779
1540.32,-71.752,-50.388,-42.436,-40.909,-40.835,-40.78
1540.34,-71.323,-50.388,-42.41,-40.901,-40.834,-40.775
1540.36,-71.598,-50.367,-42.412,-40.9,-40.831,-40.774
1540.38,-71.729,-50.339,-42.423,-40.901,-40.832,-40.768
1540.4,-71.363,-50.346,-42.414,-40.903,-40.83,-40.771
1540.42,-71.434,-50.336,-42.4,-40.895,-40.825,-40.772
1540.44,-71.474,-50.332,-42.407,-40.898,-40.828,-40.77
1540.46,-71.45,-50.352,-42.411,-40.891,-40.829,-40.763
1540.48,-71.556,-50.347,-42.397,-40.891,-40.828,-40.762
1540.5,-71.718,-50.351,-42.393,-40.891,-40.819,-40.761
1540.52,-71.29,-50.368,-42.381,-40.899,-40.805,-40.757
1540.54,-71.003,-50.382,-42.387,-40.892,-40.813,-40.763
1540.56,-71.394,-50.382,-42.397,-40.892,-40.816,-40.758
1540.58,-71.204,-50.391,-42.382,-40.891,-40.824,-40.756
1540.6,-71.648,-50.394,-42.393,-40.888,-40.823,-40.762
1540.62,-71.183,-50.397,-42.393,-40.881,-40.819,-40.757
1540.64,-71.41,-50.42,-42.378,-40.883,-40.804,-40.76
1540.66,-71.489,-50.435,-42.389,-40.877,-40.802,-40.76
1540.68,-71.526,-50.441,-42.376,-40.883,-40.809,-40.747
1540.7,-71.168,-50.463,-42.359,-40.879,-40.802,-40.746
1540.72,-71.585,-50.438,-42.365,-40.871,-40.809,-40.743
1540.74,-71.41,-50.422,-42.354,-40.873,-40.799,-40.742
1540.76,-71.116,-50.427,-42.357,-40.862,-40.798,-40.739
1540.78,-71.27,-50.42,-42.349,-40.863,-40.795,-40.738
1540.8,-71.215,-50.418,-42.349,-40.861,-40.788,-40.736
1540.82,-71.742,-50.427,-42.349,-40.853,-40.795,-40.732
1540.84,-71.256,-50.455,-42.34,-40.858,-40.801,-40.743
1540.86,-71.439,-50.446,-42.346,-40.855,-40.799,-40.744
1540.88,-71.594,-50.441,-42.338,-40.85,-40.782,-40.74
1540.9,-71.378,-50.419,-42.358,-40.849,-40.779,-40.73
1540.92,-71.517,-50.411,-42.352,-40.848,-40.782,-40.737
1540.94,-71.616,-50.408,-42.354,-40.85,-40.776,-40.726
1540.96,-71.576,-50.394,-42.352,-40.843,-40.775,-40.73
1540.98,-71.648,-50.38,-42.34,-40.847,-40.78,-40.74
1541.0,-71.548,-50.362,-42.337,-40.85,-40.783,-40.735
1541.02,-71.362,-50.351,-42.343,-40.838,-40.781,-40.723
1541.04,-71.557,-50.348,-42.352,-40.838,-40.783,-40.74
1541.06,-71.38,-50.31,-42.352,-40.839,-40.782,-40.723
1541.08,-71.391,-50.306,-42.353,-40.833,-40.778,-40.72
1541.1,-71.777,-50.298,-42.338,-40.832,-40.771,-40.725
1541.12,-71.229,-50.283,-42.337,-40.832,-40.769,-40.715
1541.14,-71.499,-50.28,-42.323,-40.827,-40.767,-40.698
1541.16,-71.726,-50.277,-42.334,-40.824,-40.762,-40.694
1541.18,-71.207,-50.255,-42.328,-40.824,-40.759,-40.695
1541.2,-71.139,-50.251,-42.327,-40.817,-40.753,-40.693
1541.22,-71.482,-50.238,-42.329,-40.818,-40.753,-40.691
1541.24,-71.087,-50.223,-42.344,-40.821,-40.756,-40.686
1541.26,-71.56,-50.213,-42.327,-40.812,-40.751,-40.686
1541.28,-71.271,-50.19,-42.326,-40.809,-40.749,-40.694
1541.3,-71.007,-50.159,-42.324,-40.809,-40.752,-40.686
1541.32,-71.225,-50.136,-42.318,-40.807,-40.745,-40.685
1541.34,-70.996,-50.136,-42.316,-40.804,-40.744,-40.679
1541.36,-71.133,-50.162,-42.312,-40.806,-40.741,-40.67
1541.38,-71.285,-50.174,-42.293,-40.802,-40.735,-40.667
1541.4,-71.025,-50.18,-42.284,-40.804,-40.733,-40.665
1541.42,-70.977,-50.181,-42.28,-40.797,-40.717,-40.663
1541.44,-71.235,-50.19,-42.283,-40.797,-40.712,-40.66
1541.46,-71.38,-50.193,-42.271,-40.792,-40.716,-40.656
1541.48,-70.801,-50.201,-42.292,-40.791,-40.722,-40.652
1541.5,-70.848,-50.208,-42.276,-40.788,-40.721,-40.649
1541.52,-70.941,-50.223,-42.277,-40.78,-40.707,-40.653
1541.54,-71.117,-50.225,-42.27,-40.77,-40.704,-40.65
1541.56,-71.177,-50.242,-42.264,-40.775,-40.697,-40.652
1541.58,-71.017,-50.249,-42.252,-40.761,-40.698,-40.647
1541.6,-71.077,-50.26,-42.239,-40.766,-40.702,-40.639
1541.62,-70.904,-50.256,-42.232,-40.767,-40.697,-40.635
1541.64,-71.015,-50.252,-42.232,-40.762,-40.682,-40.632
1541.66,-70.859,-50.264,-42.231,-40.762,-40.679,-40.628
1541.68,-71.108,-50.263,-42.232,-40.751,-40.675,-40.624
1541.7,-71.227,-50.244,-42.212,-40.743,-40.671,-40.619
1541.72,-70.878,-50.235,-42.221,-40.741,-40.672,-40.617
1541.74,-71.083,-50.244,-42.216,-40.743,-40.67,-40.616
1541.76,-71.093,-50.246,-42.207,-40.738,-40.67,-40.627
1541.78,-71.232,-50.243,-42.203,-40.733,-40.661,-40.625
1541.8,-71.008,-50.227,-42.209,-40.728,-40.654,-40.615
1541.82,-71.331,-50.21,-42.2,-40.721,-40.659,-40.603
1541.84,-71.061,-50.214,-42.214,-40.722,-40.648,-40.61
1541.86,-71.25,-50.208,-42.21,-40.72,-40.647,-40.598
1541.88,-71.024,-50.188,-42.199,-40.715,-40.643,-40.609
1541.9,-71.179,-50.177,-42.197,-40.721,-40.642,-40.607
1541.92,-71.321,-50.166,-42.196,-40.712,-40.633,-40.603
1541.94,-71.031,-50.164,-42.198,-40.703,-40.626,-40.596
1541.96,-70.904,-50.152,-42.199,-40.692,-40.632,-40.604
1541.98,-71.489,-50.124,-42.199,-40.698,-40.636,-40.579
1542.0,-70.763,-50.109,-42.19,-40.692,-40.626,-40.579
1542.02,-70.897,-50.106,-42.192,-40.689,-40.625,-40.583
1542.04,-71.224,-50.082,-42.186,-40.686,-40.616,-40.562
1542.06,-71.098,-50.078,-42.179,-40.676,-40.614,-40.553
1542.08,-70.98,-50.064,-42.186,-40.673,-40.61,-40.547
1542.1,-70.867,-50.053,-42.168,-40.669,-40.599,-40.549
1542.12,-70.96,-50.046,-42.16,-40.667,-40.598,-40.543
1542.14,-70.925,-50.037,-42.182,-40.664,-40.593,-40.537
1542.16,-71.066,-50.024,-42.161,-40.658,-40.597,-40.532
1542.18,-70.876,-50.007,-42.155,-40.652,-40.59,-40.533
1542.2,-70.956,-49.99,-42.162,-40.66,-40.594,-40.529
1542.22,-70.732,-49.967,-42.156,-40.652,-40.587,-40.53
1542.24,-70.838,-49.964,-42.147,-40.649,-40.579,-40.525
1542.26,-70.963,-49.966,-42.148,-40.648,-40.578,-40.516
1542.28,-70.629,-49.971,-42.141,-40.642,-40.575,-40.503
1542.3,-70.847,-49.983,-42.125,-40.634,-40.571,-40.507
1542.32,-71.034,-49.99,-42.118,-40.634,-40.565,-40.5
1542.34,-70.845,-49.986,-42.113,-40.632,-40.546,-40.493
1542.36,-70.95,-49.988,-42.104,-40.628,-40.552,-40.489
1542.38,-70.701,-49.989,-42.106,-40.622,-40.557,-40.482
1542.4,-70.637,-49.993,-42.094,-40.618,-40.541,-40.478
1542.42,-70.558,-50.008,-42.092,-40.615,-40.55,-40.48
1542.44,-70.711,-50.025,-42.095,-40.605,-40.541,-40.472
1542.46,-70.588,-50.028,-42.083,-40.601,-40.526,-40.468
1542.48,-70.766,-50.034,-42.086,-40.597,-40.525,-40.469
1542.5,-70.733,-50.034,-42.066,-40.593,-40.518,-40.455
1542.52,-70.691,-50.037,-42.063,-40.594,-40.516,-40.45
1542.54,-70.529,-50.041,-42.054,-40.578,-40.515,-40.444
1542.56,-70.665,-50.034,-42.05,-40.582,-40.508,-40.44
1542.58,-70.932,-50.037,-42.052,-40.582,-40.505,-40.437
1542.6,-70.731,-50.033,-42.038,-40.572,-40.494,-40.434
1542.62,-71.176,-50.042,-42.035,-40.568,-40.491,-40.43
1542.64,-70.7,-50.027,-42.038,-40.564,-40.493,-40.424
1542.66,-70.711,-50.025,-42.029,-40.562,-40.494,-40.422
1542.68,-71.108,-50.013,-42.03,-40.548,-40.492,-40.433
1542.7,-70.77,-50.017,-42.026,-40.552,-40.481,-40.428
1542.72,-70.774,-49.993,-42.016,-40.543,-40.48,-40.416
1542.74,-70.71,-50.011,-42.028,-40.534,-40.481,-40.42
1542.76,-71.036,-50.0,-42.015,-40.532,-40.47,-40.413
1542.78,-70.859,-49.98,-42.017,-40.534,-40.468,-40.405
1542.8,-70.924,-49.959,-42.011,-40.533,-40.464,-40.415
1542.82,-71.041,-49.957,-42.011,-40.529,-40.461,-40.414
1542.84,-70.799,-49.955,-42.008,-40.523,-40.457,-40.404
1542.86,-70.859,-49.942,-42.016,-40.512,-40.462,-40.41
1542.88,-70.899,-49.919,-42.003,-40.505,-40.457,-40.404
1542.9,-71.074,-49.901,-42.008,-40.496,-40.453,-40.387
1542.92,-70.748,-49.876,-41.99,-40.499,-40.442,-40.398
1542.94,-70.933,-49.856,-42.008,-40.498,-40.437,-40.388
1542.96,-70.605,-49.863,-42.004,-40.495,-40.44,-40.372
1542.98,-70.786,-49.852,-42.002,-40.49,-40.433,-40.372
1543.0,-70.831,-49.837,-41.979,-40.483,-40.435,-40.367
1543.02,-70.542,-49.836,-41.964,-40.476,-40.415,-40.368
1543.04,-70.791,-49.835,-41.976,-40.472,-40.416,-40.359
1543.06,-70.639,-49.825,-41.972,-40.466,-40.415,-40.349
1543.08,-70.769,-49.806,-41.953,-40.452,-40.411,-40.345
1543.1,-70.498,-49.79,-41.957,-40.458,-40.407,-40.349
1543.12,-70.845,-49.774,-41.96,-40.453,-40.406,-40.336
1543.14,-70.707,-49.766,-41.955,-40.447,-40.392,-40.335
1543.16,-70.184,-49.767,-41.953,-40.451,-40.384,-40.34
1543.18,-70.496,-49.756,-41.943,-40.443,-40.387,-40.325
1543.2,-70.61,-49.774,-41.92,-40.439,-40.385,-40.321
1543.22,-70.592,-49.784,-41.93,-40.437,-40.381,-40.316
1543.24,-70.514,-49.777,-41.92,-40.432,-40.371,-40.317
1543.26,-70.441,-49.782,-41.923,-40.431,-40.377,-40.312
1543.28,-70.243,-49.782,-41.919,-40.433,-40.37,-40.313
1543.3,-70.342,-49.782,-41.922,-40.428,-40.366,-40.307
1543.32,-70.474,-49.789,-41.906,-40.424,-40.358,-40.304
1543.34,-70.479,-49.818,-41.918,-40.418,-40.363,-40.31
1543.36,-70.31,-49.835,-41.914,-40.417,-40.359,-40.301
1543.38,-70.285,-49.835,-41.909,-40.416,-40.344,-40.304
1543.4,-70.451,-49.832,-41.901,-40.403,-40.345,-40.301
1543.42,-70.299,-49.838,-41.888,-40.4,-40.344,-40.291
1543.44,-70.546,-49.847,-41.888,-40.411,-40.337,-40.288
1543.46,-70.567,-49.851,-41.879,-40.403,-40.329,-40.284
1543.48,-70.41,-49.849,-41.879,-40.403,-40.334,-40.281
1543.5,-70.459,-49.844,-41.868,-40.403,-40.322,-40.276
1543.52,-70.417,-49.851,-41.863,-40.39,-40.315,-40.274
1543.54,-70.601,-49.844,-41.867,-40.389,-40.311,-40.272
1543.56,-70.697,-49.839,-41.861,-40.378,-40.315,-40.266
1543.58,-70.454,-49.821,-41.864,-40.381,-40.317,-40.278
1543.6,-70.507,-49.829,-41.857,-40.382,-40.313,-40.275
1543.62,-70.591,-49.804,-41.872,-40.375,-40.305,-40.267
1543.64,-70.694,-49.814,-41.87,-40.38,-40.304,-40.255
1543.66,-70.612,-49.808,-41.863,-40.37,-40.308,-40.262
1543.68,-70.885,-49.79,-41.862,-40.372,-40.304,-40.254
1543.7,-70.78,-49.791,-41.853,-40.377,-40.295,-40.255
1543.72,-70.226,-49.772,-41.85,-40.376,-40.292,-40.261
1543.74,-70.563,-49.782,-41.844,-40.36,-40.291,-40.251
1543.76,-70.661,-49.76,-41.853,-40.354,-40.283,-40.235
1543.78,-70.412,-49.744,-41.846,-40.341,-40.285,-40.246
1543.8,-70.435,-49.724,-41.855,-40.334,-40.281,-40.221
1543.82,-70.583,-49.71,-41.841,-40.339,-40.276,-40.229
1543.84,-70.449,-49.687,-41.854,-40.351,-40.27,-40.235
1543.86,-70.444,-49.69,-41.849,-40.352,-40.278,-40.225
1543.88,-70.423,-49.683,-41.849,-40.352,-40.277,-40.213
1543.9,-70.494,-49.672,-41.849,-40.334,-40.28,-40.21
1543.92,-70.25,-49.665,-41.834,-40.345,-40.279,-40.215
1543.94,-70.641,-49.672,-41.829,-40.345,-40.27,-40.211
1543.96,-70.522,-49.666,-41.844,-40.347,-40.268,-40.204
1543.98,-70.263,-49.644,-41.826,-40.34,-40.271,-40.204
1544.0,-70.379,-49.624,-41.823,-40.34,-40.272,-40.208
1544.02,-70.445,-49.612,-41.832,-40.339,-40.277,-40.213
1544.04,-70.138,-49.601,-41.83,-40.338,-40.277,-40.207
1544.06,-70.077,-49.603,-41.823,-40.336,-40.272,-40.207
1544.08,-70.292,-49.591,-41.821,-40.334,-40.265,-40.201
1544.1,-70.389,-49.6,-41.812,-40.321,-40.265,-40.192
1544.12,-70.148,-49.617,-41.804,-40.329,-40.261,-40.189
1544.14,-70.401,-49.618,-41.8,-40.326,-40.258,-40.186
1544.16,-70.085,-49.62,-41.796,-40.319,-40.246,-40.183
1544.18,-70.055,-49.62,-41.789,-40.319,-40.244,-40.181
1544.2,-70.253,-49.631,-41.803,-40.32,-40.239,-40.177
1544.22,-69.839,-49.633,-41.785,-40.318,-40.252,-40.182
1544.24,-70.09,-49.644,-41.795,-40.314,-40.253,-40.179
1544.26,-70.08,-49.661,-41.797,-40.312,-40.25,-40.181
1544.28,-70.178,-49.673,-41.788,-40.307,-40.244,-40.181
1544.3,-70.071,-49.683,-41.788,-40.316,-40.244,-40.188
1544.32,-70.085,-49.69,-41.768,-40.302,-40.248,-40.175
1544.34,-70.238,-49.7,-41.774,-40.314,-40.238,-40.17
1544.36,-70.12,-49.706,-41.768,-40.295,-40.226,-40.167
1544.38,-70.272,-49.7,-41.763,-40.3,-40.226,-40.162
1544.4,-70.067,-49.692,-41.762,-40.3,-40.229,-40.161
1544.42,-70.042,-49.698,-41.757,-40.284,-40.219,-40.16
1544.44,-70.078,-49.704,-41.758,-40.287,-40.221,-40.157
1544.46,-70.415,-49.699,-41.756,-40.273,-40.218,-40.153
1544.48,-70.171,-49.683,-41.755,-40.292,-40.218,-40.157
1544.5,-70.363,-49.684,-41.75,-40.286,-40.217,-40.171
1544.52,-70.034,-49.675,-41.749,-40.276,-40.21,-40.162
1544.54,-70.382,-49.655,-41.748,-40.281,-40.21,-40.167
1544.56,-70.071,-49.652,-41.757,-40.263,-40.208,-40.152
1544.58,-70.33,-49.644,-41.751,-40.266,-40.206,-40.145
1544.6,-70.434,-49.64,-41.746,-40.262,-40.201,-40.141
1544.62,-70.139,-49.62,-41.745,-40.27,-40.202,-40.155
1544.64,-70.331,-49.622,-41.742,-40.263,-40.201,-40.154
1544.66,-70.287,-49.607,-41.736,-40.259,-40.196,-40.154
1544.68,-70.526,-49.603,-41.754,-40.248,-40.194,-40.155
1544.7,-70.3,-49.592,-41.759,-40.25,-40.209,-40.144
1544.72,-70.205,-49.57,-41.754,-40.247,-40.208,-40.142
1544.74,-70.223,-49.568,-41.758,-40.251,-40.201,-40.154
1544.76,-69.9,-49.555,-41.756,-40.265,-40.209,-40.153
1544.78,-70.07,-49.544,-41.755,-40.265,-40.211,-40.145
1544.8,-70.221,-49.541,-41.761,-40.255,-40.211,-40.149
1544.82,-69.926,-49.537,-41.754,-40.262,-40.209,-40.151
1544.84,-70.208,-49.53,-41.741,-40.261,-40.196,-40.151
1544.86,-70.065,-49.523,-41.762,-40.253,-40.202,-40.146
1544.88,-70.309,-49.491,-41.745,-40.252,-40.197,-40.144
1544.9,-70.097,-49.491,-41.731,-40.251,-40.202,-40.146
1544.92,-69.683,-49.486,-41.745,-40.254,-40.198,-40.146
1544.94,-69.94,-49.479,-41.746,-40.251,-40.199,-40.143
1544.96,-70.1,-49.477,-41.739,-40.243,-40.199,-40.153
1544.98,-69.81,-49.477,-41.736,-40.252,-40.191,-40.15
1545.0,-70.114,-49.472,-41.731,-40.243,-40.191,-40.137
1545.02,-69.911,-49.481,-41.718,-40.239,-40.189,-40.131
1545.04,-69.646,-49.492,-41.728,-40.249,-40.186,-40.131
1545.06,-69.956,-49.491,-41.719,-40.244,-40.184,-40.129
1545.08,-69.909,-49.504,-41.72,-40.25,-40.184,-40.132
1545.1,-69.818,-49.507,-41.729,-40.25,-40.176,-40.133
1545.12,-69.84,-49.52,-41.717,-40.249,-40.183,-40.133
1545.14,-69.876,-49.523,-41.715,-40.245,-40.186,-40.136
1545.16,-69.891,-49.537,-41.724,-40.244,-40.18,-40.132
1545.18,-69.825,-49.553,-41.714,-40.244,-40.18,-40.136
1545.2,-70.135,-49.577,-41.707,-40.241,-40.174,-40.135
1545.22,-69.649,-49.589,-41.703,-40.231,-40.18,-40.131
1545.24,-69.943,-49.596,-41.706,-40.243,-40.178,-40.126
1545.26,-69.918,-49.602,-41.705,-40.239,-40.172,-40.127
1545.28,-69.906,-49.609,-41.703,-40.243,-40.178,-40.13
1545.3,-69.755,-49.612,-41.702,-40.251,-40.173,-40.133
1545.32,-69.991,-49.613,-41.704,-40.248,-40.172,-40.149
1545.34,-69.878,-49.603,-41.704,-40.242,-40.177,-40.153
1545.36,-70.041,-49.6,-41.702,-40.238,-40.18,-40.136
1545.38,-70.101,-49.58,-41.7,-40.249,-40.184,-40.131
1545.4,-69.682,-49.573,-41.701,-40.26,-40.175,-40.145
1545.42,-69.955,-49.593,-41.698,-40.252,-40.174,-40.153
1545.44,-69.969,-49.582,-41.697,-40.252,-40.173,-40.15
1545.46,-70.005,-49.562,-41.709,-40.24,-40.169,-40.143
1545.48,-69.931,-49.545,-41.699,-40.243,-40.167,-40.136
1545.5,-69.981,-49.546,-41.706,-40.233,-40.163,-40.121
1545.52,-69.941,-49.541,-41.7,-40.231,-40.156,-40.128
1545.54,-69.869,-49.524,-41.698,-40.234,-40.16,-40.126
1545.56,-70.079,-49.495,-41.706,-40.221,-40.154,-40.127
1545.58,-69.771,-49.497,-41.713,-40.223,-40.139,-40.11
1545.6,-69.914,-49.492,-41.709,-40.215,-40.146,-40.116
1545.62,-70.021,-49.464,-41.719,-40.209,-40.161,-40.103
1545.64,-69.968,-49.475,-41.718,-40.217,-40.16,-40.106
1545.66,-69.548,-49.477,-41.721,-40.238,-40.168,-40.109
1545.68,-69.883,-49.465,-41.717,-40.244,-40.174,-40.11
1545.7,-69.85,-49.445,-41.722,-40.241,-40.17,-40.109
1545.72,-69.965,-49.444,-41.721,-40.234,-40.168,-40.107
1545.74,-69.798,-49.437,-41.709,-40.243,-40.169,-40.114
1545.76,-69.683,-49.402,-41.73,-40.24,-40.171,-40.105
1545.78,-69.835,-49.394,-41.718,-40.24,-40.164,-40.103
1545.8,-69.701,-49.409,-41.702,-40.236,-40.166,-40.1
1545.82,-69.943,-49.406,-41.711,-40.232,-40.165,-40.098
1545.84,-69.559,-49.398,-41.716,-40.235,-40.171,-40.098
1545.86,-69.678,-49.398,-41.712,-40.235,-40.166,-40.102
1545.88,-69.474,-49.407,-41.705,-40.24,-40.175,-40.1
1545.9,-69.671,-49.393,-41.707,-40.241,-40.174,-40.101
1545.92,-69.735,-49.379,-41.694,-40.235,-40.155,-40.096
1545.94,-69.565,-49.395,-41.696,-40.242,-40.153,-40.094
1545.96,-69.567,-49.405,-41.69,-40.242,-40.161,-40.095
1545.98,-69.536,-49.415,-41.692,-40.24,-40.167,-40.093
1546.0,-69.567,-49.422,-41.696,-40.243,-40.176,-40.094
1546.02,-69.613,-49.427,-41.697,-40.244,-40.172,-40.099
1546.04,-69.413,-49.426,-41.688,-40.237,-40.167,-40.097
1546.06,-69.523,-49.433,-41.698,-40.229,-40.161,-40.097
1546.08,-69.516,-49.456,-41.692,-40.221,-40.16,-40.09
1546.1,-69.656,-49.483,-41.684,-40.223,-40.151,-40.088
1546.12,-69.606,-49.491,-41.678,-40.223,-40.147,-40.088
1546.14,-69.639,-49.498,-41.671,-40.216,-40.15,-40.085
1546.16,-69.492,-49.515,-41.678,-40.22,-40.148,-40.082
1546.18,-69.484,-49.526,-41.682,-40.213,-40.15,-40.087
1546.2,-69.635,-49.536,-41.68,-40.226,-40.147,-40.087
1546.22,-69.594,-49.54,-41.679,-40.227,-40.155,-40.106
1546.24,-69.756,-49.535,-41.676,-40.219,-40.15,-40.109
1546.26,-69.697,-49.529,-41.678,-40.22,-40.16,-40.106
1546.28,-69.585,-49.504,-41.679,-40.214,-40.159,-40.091
1546.3,-69.632,-49.478,-41.675,-40.219,-40.158,-40.1
1546.32,-69.758,-49.499,-41.675,-40.221,-40.146,-40.111
1546.34,-69.616,-49.499,-41.685,-40.213,-40.143,-40.101
1546.36,-69.687,-49.482,-41.689,-40.214,-40.146,-40.103
1546.38,-69.737,-49.466,-41.691,-40.208,-40.145,-40.091
1546.4,-69.579,-49.471,-41.695,-40.208,-40.145,-40.096
1546.42,-69.594,-49.463,-41.693,-40.214,-40.153,-40.098
1546.44,-69.501,-49.433,-41.688,-40.22,-40.149,-40.114
1546.46,-69.707,-49.394,-41.695,-40.212,-40.165,-40.116
1546.48,-69.643,-49.416,-41.706,-40.214,-40.162,-40.115
1546.5,-69.84,-49.415,-41.701,-40.209,-40.166,-40.128
1546.52,-69.619,-49.39,-41.704,-40.206,-40.171,-40.113
1546.54,-69.429,-49.389,-41.703,-40.207,-40.171,-40.112
1546.56,-69.61,-49.393,-41.703,-40.228,-40.167,-40.128
1546.58,-69.429,-49.377,-41.705,-40.231,-40.174,-40.128
1546.6,-69.767,-49.366,-41.706,-40.23,-40.173,-40.114
1546.62,-69.386,-49.374,-41.71,-40.218,-40.167,-40.112
1546.64,-69.627,-49.363,-41.707,-40.226,-40.171,-40.113
1546.66,-69.54,-49.319,-41.714,-40.233,-40.171,-40.121
1546.68,-69.437,-49.32,-41.716,-40.236,-40.168,-40.12
1546.7,-69.458,-49.326,-41.707,-40.229,-40.175,-40.123
1546.72,-69.475,-49.333,-41.708,-40.225,-40.176,-40.127
1546.74,-69.626,-49.324,-41.711,-40.228,-40.175,-40.128
1546.76,-69.328,-49.322,-41.707,-40.228,-40.176,-40.127
1546.78,-69.328,-49.333,-41.702,-40.223,-40.175,-40.129
1546.8,-69.295,-49.319,-41.699,-40.222,-40.169,-40.126
1546.82,-69.304,-49.286,-41.682,-40.224,-40.165,-40.112
1546.84,-69.263,-49.309,-41.689,-40.223,-40.164,-40.109
1546.86,-69.213,-49.328,-41.688,-40.223,-40.166,-40.108
1546.88,-69.445,-49.33,-41.692,-40.222,-40.157,-40.107
1546.9,-69.117,-49.34,-41.69,-40.223,-40.161,-40.107
1546.92,-69.245,-49.351,-41.695,-40.224,-40.157,-40.114
1546.94,-69.214,-49.355,-41.688,-40.224,-40.161,-40.107
1546.96,-69.268,-49.355,-41.695,-40.224,-40.155,-40.109
1546.98,-69.224,-49.39,-41.687,-40.225,-40.151,-40.115
1547.0,-69.146,-49.405,-41.691,-40.219,-40.151,-40.116
1547.02,-69.259,-49.419,-41.684,-40.227,-40.149,-40.116
1547.04,-69.3,-49.424,-41.674,-40.217,-40.15,-40.105
1547.06,-69.322,-49.449,-41.674,-40.22,-40.144,-40.098
1547.08,-69.403,-49.472,-41.682,-40.212,-40.143,-40.099
1547.1,-69.091,-49.457,-41.679,-40.223,-40.14,-40.099
1547.12,-69.359,-49.465,-41.677,-40.228,-40.144,-40.099
1547.14,-69.338,-49.469,-41.678,-40.225,-40.145,-40.101
1547.16,-69.528,-49.462,-41.684,-40.23,-40.149,-40.104
1547.18,-69.147,-49.435,-41.682,-40.224,-40.152,-40.106
1547.2,-69.346,-49.407,-41.677,-40.219,-40.161,-40.124
1547.22,-69.41,-49.415,-41.677,-40.238,-40.158,-40.13
1547.24,-69.464,-49.419,-41.679,-40.226,-40.155,-40.124
1547.26,-69.534,-49.413,-41.687,-40.238,-40.166,-40.114
1547.28,-69.561,-49.408,-41.691,-40.233,-40.166,-40.126
1547.3,-69.288,-49.414,-41.695,-40.236,-40.161,-40.124
1547.32,-69.392,-49.405,-41.693,-40.232,-40.161,-40.117
1547.34,-69.201,-49.376,-41.684,-40.247,-40.165,-40.128
1547.36,-69.445,-49.328,-41.691,-40.241,-40.174,-40.135
1547.38,-69.41,-49.348,-41.703,-40.244,-40.173,-40.133
1547.4,-69.306,-49.362,-41.705,-40.233,-40.17,-40.137
1547.42,-69.41,-49.331,-41.71,-40.233,-40.179,-40.138
1547.44,-69.312,-49.314,-41.71,-40.228,-40.18,-40.124
1547.46,-69.382,-49.321,-41.712,-40.247,-40.178,-40.135
1547.48,-69.282,-49.312,-41.715,-40.248,-40.176,-40.141
1547.5,-69.295,-49.308,-41.713,-40.246,-40.18,-40.123
1547.52,-69.014,-49.307,-41.711,-40.243,-40.174,-40.122
1547.54,-69.132,-49.301,-41.714,-40.246,-40.181,-40.124
1547.56,-69.161,-49.255,-41.715,-40.248,-40.18,-40.128
1547.58,-69.211,-49.244,-41.724,-40.249,-40.181,-40.123
1547.6,-69.202,-49.263,-41.715,-40.24,-40.179,-40.122
1547.62,-69.087,-49.27,-41.72,-40.239,-40.176,-40.121
1547.64,-69.181,-49.268,-41.724,-40.25,-40.188,-40.125
1547.66,-69.107,-49.269,-41.718,-40.254,-40.196,-40.128
1547.68,-69.082,-49.28,-41.723,-40.246,-40.193,-40.134
1547.7,-69.072,-49.254,-41.729,-40.258,-40.194,-40.142
1547.72,-69.047,-49.225,-41.71,-40.26,-40.203,-40.134
1547.74,-69.146,-49.245,-41.713,-40.268,-40.206,-40.132
1547.76,-69.021,-49.289,-41.715,-40.264,-40.208,-40.134
1547.78,-68.785,-49.284,-41.719,-40.266,-40.203,-40.137
1547.8,-68.94,-49.281,-41.716,-40.268,-40.206,-40.134
1547.82,-68.757,-49.29,-41.722,-40.27,-40.206,-40.138
1547.84,-68.937,-49.294,-41.717,-40.272,-40.206,-40.136
1547.86,-68.96,-49.296,-41.722,-40.273,-40.21,-40.136
1547.88,-69.081,-49.343,-41.709,-40.267,-40.203,-40.141
1547.9,-68.874,-49.348,-41.714,-40.27,-40.201,-40.14
1547.92,-69.031,-49.352,-41.712,-40.27,-40.208,-40.148
1547.94,-68.953,-49.357,-41.701,-40.263,-40.216,-40.15
1547.96,-69.019,-49.381,-41.708,-40.278,-40.208,-40.141
1547.98,-68.882,-49.389,-41.712,-40.269,-40.21,-40.143
1548.0,-69.387,-49.4,-41.713,-40.283,-40.211,-40.147
1548.02,-68.925,-49.41,-41.712,-40.287,-40.218,-40.153
1548.04,-68.958,-49.411,-41.71,-40.285,-40.218,-40.155
1548.06,-69.053,-49.408,-41.713,-40.286,-40.222,-40.156
1548.08,-68.942,-49.38,-41.715,-40.276,-40.227,-40.159
1548.1,-69.071,-49.352,-41.716,-40.273,-40.223,-40.161
1548.12,-69.232,-49.342,-41.71,-40.275,-40.227,-40.172
1548.14,-69.126,-49.359,-41.723,-40.274,-40.212,-40.17
1548.16,-69.325,-49.35,-41.723,-40.27,-40.207,-40.167
1548.18,-68.877,-49.345,-41.729,-40.266,-40.211,-40.169
1548.2,-69.172,-49.367,-41.734,-40.278,-40.212,-40.159
1548.22,-69.074,-49.355,-41.732,-40.279,-40.212,-40.167
1548.24,-69.018,-49.318,-41.729,-40.277,-40.205,-40.177
1548.26,-68.925,-49.278,-41.743,-40.284,-40.222,-40.185
1548.28,-68.83,-49.289,-41.748,-40.285,-40.22,-40.183
1548.3,-69.337,-49.303,-41.75,-40.289,-40.216,-40.19
1548.32,-68.954,-49.291,-41.757,-40.287,-40.23,-40.17
1548.34,-68.915,-49.259,-41.749,-40.282,-40.232,-40.166
1548.36,-69.005,-49.261,-41.753,-40.292,-40.229,-40.168
1548.38,-68.929,-49.248,-41.751,-40.299,-40.233,-40.171
1548.4,-68.874,-49.255,-41.753,-40.302,-40.24,-40.171
1548.42,-69.087,-49.286,-41.756,-40.3,-40.238,-40.173
1548.44,-68.902,-49.247,-41.755,-40.299,-40.242,-40.174
1548.46,-69.056,-49.206,-41.76,-40.301,-40.243,-40.179
1548.48,-68.771,-49.194,-41.763,-40.31,-40.244,-40.19
1548.5,-68.875,-49.206,-41.758,-40.312,-40.247,-40.197
1548.52,-68.867,-49.216,-41.758,-40.311,-40.245,-40.195
1548.54,-68.715,-49.209,-41.758,-40.306,-40.251,-40.189
1548.56,-68.779,-49.213,-41.747,-40.303,-40.255,-40.192
1548.58,-68.834,-49.214,-41.757,-40.307,-40.256,-40.193
1548.6,-68.663,-49.208,-41.757,-40.316,-40.262,-40.201
1548.62,-68.779,-49.184,-41.742,-40.318,-40.263,-40.211
1548.64,-68.754,-49.196,-41.746,-40.322,-40.263,-40.207
1548.66,-68.627,-49.226,-41.749,-40.325,-40.265,-40.208
1548.68,-68.727,-49.223,-41.746,-40.321,-40.265,-40.211
1548.7,-68.786,-49.226,-41.75,-40.327,-40.266,-40.213
1548.72,-68.461,-49.245,-41.759,-40.332,-40.262,-40.218
1548.74,-68.6,-49.252,-41.757,-40.333,-40.265,-40.225
1548.76,-68.591,-49.246,-41.765,-40.332,-40.274,-40.224
1548.78,-68.709,-49.275,-41.749,-40.336,-40.28,-40.222
1548.8,-68.607,-49.283,-41.761,-40.342,-40.281,-40.231
1548.82,-68.713,-49.275,-41.758,-40.341,-40.276,-40.235
1548.84,-68.613,-49.305,-41.749,-40.338,-40.279,-40.232
1548.86,-68.648,-49.336,-41.754,-40.348,-40.279,-40.231
1548.88,-68.766,-49.34,-41.757,-40.342,-40.277,-40.233
1548.9,-68.604,-49.332,-41.754,-40.342,-40.285,-40.232
1548.92,-68.631,-49.342,-41.754,-40.347,-40.279,-40.246
1548.94,-68.843,-49.35,-41.752,-40.346,-40.286,-40.25
1548.96,-68.727,-49.362,-41.753,-40.338,-40.283,-40.251
1548.98,-68.741,-49.343,-41.759,-40.346,-40.29,-40.247
1549.0,-68.86,-49.314,-41.761,-40.35,-40.29,-40.245
1549.02,-68.883,-49.303,-41.759,-40.346,-40.294,-40.254
1549.04,-68.861,-49.315,-41.751,-40.352,-40.29,-40.257
1549.06,-68.89,-49.296,-41.763,-40.353,-40.29,-40.256
1549.08,-68.707,-49.282,-41.774,-40.35,-40.294,-40.259
1549.1,-68.877,-49.303,-41.774,-40.359,-40.291,-40.258
1549.12,-68.62,-49.292,-41.769,-40.348,-40.289,-40.257
1549.14,-68.725,-49.257,-41.769,-40.358,-40.291,-40.255
1549.16,-68.729,-49.235,-41.77,-40.362,-40.301,-40.265
1549.18,-68.769,-49.252,-41.79,-40.354,-40.307,-40.256
1549.2,-68.596,-49.259,-41.792,-40.36,-40.307,-40.265
1549.22,-68.787,-49.244,-41.797,-40.363,-40.315,-40.265
1549.24,-68.753,-49.216,-41.789,-40.367,-40.321,-40.282
1549.26,-68.789,-49.23,-41.797,-40.378,-40.316,-40.289
1549.28,-68.627,-49.205,-41.799,-40.38,-40.32,-40.295
1549.3,-68.681,-49.196,-41.795,-40.381,-40.328,-40.296
1549.32,-68.73,-49.211,-41.788,-40.376,-40.32,-40.274
1549.34,-68.633,-49.18,-41.785,-40.373,-40.318,-40.268
1549.36,-68.652,-49.154,-41.797,-40.37,-40.322,-40.271
1549.38,-68.448,-49.154,-41.805,-40.372,-40.319,-40.27
1549.4,-68.574,-49.173,-41.799,-40.378,-40.315,-40.276
1549.42,-68.422,-49.177,-41.804,-40.379,-40.325,-40.27
1549.44,-68.617,-49.174,-41.811,-40.384,-40.328,-40.272
1549.46,-68.392,-49.173,-41.8,-40.386,-40.332,-40.278
1549.48,-68.499,-49.176,-41.813,-40.386,-40.338,-40.285
1549.5,-68.441,-49.159,-41.808,-40.395,-40.344,-40.288
1549.52,-68.424,-49.146,-41.802,-40.4,-40.346,-40.293
1549.54,-68.466,-49.148,-41.813,-40.403,-40.351,-40.293
1549.56,-68.336,-49.171,-41.807,-40.404,-40.354,-40.296
1549.58,-68.506,-49.176,-41.809,-40.408,-40.356,-40.298
1549.6,-68.537,-49.182,-41.808,-40.408,-40.352,-40.298
1549.62,-68.323,-49.206,-41.818,-40.416,-40.352,-40.304
1549.64,-68.204,-49.208,-41.813,-40.417,-40.354,-40.307
1549.66,-68.329,-49.214,-41.826,-40.416,-40.36,-40.306
1549.68,-68.336,-49.227,-41.817,-40.422,-40.36,-40.308
1549.7,-68.366,-49.246,-41.817,-40.421,-40.361,-40.312
1549.72,-68.26,-49.239,-41.813,-40.424,-40.359,-40.313
1549.74,-68.364,-49.264,-41.812,-40.414,-40.367,-40.315
1549.76,-68.353,-49.297,-41.814,-40.429,-40.365,-40.319
1549.78,-68.373,-49.311,-41.817,-40.425,-40.367,-40.317
1549.8,-68.388,-49.305,-41.822,-40.438,-40.373,-40.319
1549.82,-68.464,-49.313,-41.823,-40.449,-40.379,-40.325
1549.84,-68.523,-49.32,-41.825,-40.449,-40.382,-40.33
1549.86,-68.418,-49.327,-41.832,-40.449,-40.385,-40.334
1549.88,-68.479,-49.3,-41.83,-40.454,-40.398,-40.336
1549.9,-68.631,-49.259,-41.837,-40.463,-40.392,-40.351
1549.92,-68.297,-49.256,-41.83,-40.452,-40.394,-40.35
1549.94,-68.475,-49.274,-41.839,-40.455,-40.388,-40.352
1549.96,-68.52,-49.263,-41.848,-40.455,-40.39,-40.343
1549.98,-68.59,-49.234,-41.845,-40.464,-40.388,-40.34
1550.0,-68.469,-49.249,-41.855,-40.468,-40.391,-40.355
1550.02,-68.437,-49.239,-41.85,-40.466,-40.392,-40.349
1550.04,-68.45,-49.221,-41.85,-40.474,-40.395,-40.362
1550.06,-68.464,-49.211,-41.846,-40.471,-40.402,-40.361
1550.08,-68.48,-49.218,-41.865,-40.461,-40.403,-40.353
1550.1,-68.495,-49.222,-41.862,-40.476,-40.408,-40.362
1550.12,-68.324,-49.19,-41.873,-40.475,-40.418,-40.379
1550.14,-68.42,-49.171,-41.864,-40.471,-40.421,-40.381
1550.16,-68.359,-49.188,-41.865,-40.475,-40.42,-40.371
1550.18,-68.304,-49.174,-41.864,-40.478,-40.413,-40.379
1550.2,-68.321,-49.15,-41.869,-40.482,-40.425,-40.374
1550.22,-68.448,-49.157,-41.872,-40.472,-40.426,-40.37
1550.24,-68.302,-49.133,-41.864,-40.48,-40.431,-40.368
1550.26,-68.228,-49.132,-41.888,-40.488,-40.436,-40.374
1550.28,-68.306,-49.127,-41.886,-40.496,-40.438,-40.376
1550.3,-68.15,-49.142,-41.88,-40.498,-40.438,-40.391
1550.32,-68.197,-49.145,-41.888,-40.504,-40.449,-40.389
1550.34,-68.331,-49.145,-41.898,-40.501,-40.455,-40.394
1550.36,-68.26,-49.146,-41.887,-40.507,-40.46,-40.397
1550.38,-68.123,-49.15,-41.884,-40.509,-40.464,-40.404
1550.4,-68.091,-49.132,-41.884,-40.518,-40.46,-40.41
1550.42,-68.03,-49.125,-41.89,-40.518,-40.466,-40.416
1550.44,-68.067,-49.12,-41.883,-40.523,-40.467,-40.414
1550.46,-68.095,-49.13,-41.89,-40.522,-40.469,-40.418
1550.48,-68.194,-49.141,-41.885,-40.525,-40.473,-40.417
1550.5,-68.114,-49.145,-41.891,-40.526,-40.468,-40.418
1550.52,-68.038,-49.162,-41.891,-40.531,-40.47,-40.424
1550.54,-67.956,-49.173,-41.888,-40.533,-40.471,-40.428
1550.56,-68.009,-49.181,-41.9,-40.531,-40.479,-40.43
1550.58,-68.094,-49.187,-41.884,-40.531,-40.481,-40.431
1550.6,-68.105,-49.209,-41.874,-40.53,-40.484,-40.434
1550.62,-68.076,-49.203,-41.89,-40.532,-40.477,-40.441
1550.64,-68.12,-49.231,-41.898,-40.537,-40.487,-40.448
1550.66,-68.216,-49.256,-41.901,-40.552,-40.486,-40.455
1550.68,-68.005,-49.28,-41.901,-40.54,-40.491,-40.46
1550.7,-68.093,-49.282,-41.9,-40.556,-40.496,-40.46
1550.72,-68.031,-49.299,-41.902,-40.561,-40.513,-40.464
1550.74,-68.134,-49.28,-41.903,-40.565,-40.504,-40.469
1550.76,-68.216,-49.281,-41.909,-40.564,-40.504,-40.474
1550.78,-68.132,-49.246,-41.91,-40.571,-40.512,-40.479
1550.8,-68.218,-49.23,-41.915,-40.571,-40.521,-40.493
1550.82,-68.261,-49.23,-41.92,-40.573,-40.53,-40.498
1550.84,-68.176,-49.241,-41.916,-40.579,-40.53,-40.504
1550.86,-68.196,-49.232,-41.938,-40.58,-40.528,-40.506
1550.88,-68.239,-49.208,-41.941,-40.583,-40.534,-40.51
1550.9,-68.201,-49.223,-41.944,-40.591,-40.536,-40.523
1550.92,-68.182,-49.209,-41.94,-40.596,-40.534,-40.518
1550.94,-68.067,-49.198,-41.95,-40.596,-40.536,-40.521
1550.96,-68.398,-49.205,-41.951,-40.597,-40.543,-40.519
1550.98,-68.132,-49.196,-41.963,-40.594,-40.54,-40.507
1551.0,-68.157,-49.191,-41.964,-40.596,-40.532,-40.509
1551.02,-68.266,-49.163,-41.975,-40.599,-40.547,-40.514
1551.04,-68.029,-49.156,-41.97,-40.6,-40.555,-40.526
1551.06,-68.097,-49.167,-41.974,-40.598,-40.56,-40.53
1551.08,-68.126,-49.148,-41.977,-40.61,-40.564,-40.537
1551.1,-68.086,-49.137,-41.979,-40.615,-40.566,-40.535
1551.12,-68.162,-49.134,-41.98,-40.616,-40.566,-40.519
1551.14,-67.892,-49.124,-41.971,-40.613,-40.57,-40.516
1551.16,-67.978,-49.128,-42.011,-40.619,-40.574,-40.52
1551.18,-68.064,-49.125,-41.996,-40.629,-40.569,-40.523
1551.2,-67.866,-49.127,-41.991,-40.632,-40.578,-40.526
1551.22,-68.032,-49.113,-41.997,-40.633,-40.583,-40.526
1551.24,-67.921,-49.122,-42.004,-40.639,-40.589,-40.531
1551.26,-67.791,-49.114,-41.994,-40.644,-40.595,-40.536
1551.28,-67.93,-49.116,-41.994,-40.645,-40.602,-40.546
1551.3,-67.871,-49.123,-41.987,-40.653,-40.605,-40.547
1551.32,-67.952,-49.11,-41.989,-40.653,-40.601,-40.548
1551.34,-67.868,-49.118,-41.987,-40.658,-40.607,-40.55
1551.36,-67.981,-49.116,-41.988,-40.659,-40.61,-40.553
1551.38,-67.682,-49.128,-41.983,-40.661,-40.614,-40.555
1551.4,-67.662,-49.133,-42.005,-40.663,-40.606,-40.554
1551.42,-67.822,-49.14,-41.996,-40.665,-40.608,-40.557
1551.44,-67.692,-49.16,-41.992,-40.666,-40.609,-40.555
1551.46,-68.054,-49.17,-41.998,-40.663,-40.616,-40.556
1551.48,-67.699,-49.177,-41.986,-40.666,-40.617,-40.56
1551.5,-67.825,-49.186,-41.985,-40.668,-40.618,-40.56
1551.52,-67.744,-49.188,-41.986,-40.672,-40.612,-40.569
1551.54,-67.694,-49.209,-41.991,-40.666,-40.617,-40.568
1551.56,-67.743,-49.221,-41.983,-40.675,-40.615,-40.566
1551.58,-67.774,-49.221,-41.993,-40.67,-40.619,-40.57
1551.6,-67.853,-49.21,-41.987,-40.679,-40.616,-40.569
1551.62,-67.904,-49.217,-41.991,-40.683,-40.62,-40.574
1551.64,-67.981,-49.219,-41.991,-40.687,-40.628,-40.58
1551.66,-67.971,-49.231,-42.001,-40.685,-40.631,-40.585
1551.68,-67.869,-49.211,-42.005,-40.692,-40.642,-40.594
1551.7,-67.993,-49.221,-42.017,-40.702,-40.645,-40.607
1551.72,-67.834,-49.207,-42.012,-40.696,-40.652,-40.616
1551.74,-67.767,-49.224,-42.019,-40.703,-40.652,-40.623
1551.76,-67.86,-49.202,-42.032,-40.703,-40.654,-40.618
1551.78,-67.995,-49.193,-42.04,-40.705,-40.656,-40.618
1551.8,-67.768,-49.2,-42.028,-40.72,-40.662,-40.635
1551.82,-68.011,-49.19,-42.032,-40.725,-40.668,-40.634
1551.84,-67.933,-49.179,-42.039,-40.728,-40.669,-40.643
1551.86,-67.903,-49.183,-42.044,-40.732,-40.674,-40.644
1551.88,-67.814,-49.163,-42.051,-40.725,-40.673,-40.643
1551.9,-67.827,-49.154,-42.064,-40.727,-40.669,-40.648
1551.92,-67.934,-49.147,-42.05,-40.733,-40.68,-40.663
1551.94,-67.742,-49.137,-42.05,-40.727,-40.688,-40.663
1551.96,-67.797,-49.135,-42.061,-40.741,-40.688,-40.667
1551.98,-67.93,-49.115,-42.062,-40.743,-40.689,-40.676
1552.0,-67.771,-49.114,-42.054,-40.743,-40.693,-40.68
1552.02,-67.754,-49.115,-42.06,-40.747,-40.695,-40.665
1552.04,-67.717,-49.103,-42.056,-40.749,-40.698,-40.665
1552.06,-67.659,-49.112,-42.097,-40.753,-40.698,-40.672
1552.08,-67.755,-49.102,-42.079,-40.755,-40.696,-40.674
1552.1,-67.579,-49.081,-42.079,-40.762,-40.705,-40.681
1552.12,-67.599,-49.082,-42.085,-40.761,-40.716,-40.679
1552.14,-67.646,-49.093,-42.088,-40.774,-40.719,-40.686
1552.16,-67.608,-49.074,-42.083,-40.775,-40.729,-40.69
1552.18,-67.563,-49.078,-42.083,-40.782,-40.736,-40.699
1552.2,-67.56,-49.095,-42.086,-40.789,-40.74,-40.702
1552.22,-67.504,-49.098,-42.087,-40.79,-40.737,-40.706
1552.24,-67.673,-49.105,-42.077,-40.79,-40.728,-40.707
1552.26,-67.631,-49.107,-42.083,-40.799,-40.73,-40.71
1552.28,-67.481,-49.121,-42.08,-40.798,-40.741,-40.711
1552.3,-67.435,-49.124,-42.106,-40.803,-40.748,-40.714
1552.32,-67.457,-49.137,-42.097,-40.807,-40.75,-40.718
1552.34,-67.321,-49.15,-42.098,-40.806,-40.752,-40.72
1552.36,-67.615,-49.157,-42.099,-40.805,-40.753,-40.716
1552.38,-67.547,-49.172,-42.096,-40.809,-40.755,-40.716
1552.4,-67.39,-49.184,-42.091,-40.809,-40.762,-40.721
1552.42,-67.519,-49.192,-42.095,-40.814,-40.752,-40.725
1552.44,-67.471,-49.201,-42.098,-40.811,-40.76,-40.727
1552.46,-67.562,-49.185,-42.095,-40.809,-40.754,-40.729
1552.48,-67.421,-49.197,-42.102,-40.813,-40.76,-40.725
1552.5,-67.621,-49.193,-42.093,-40.816,-40.767,-40.728
1552.52,-67.605,-49.184,-42.094,-40.827,-40.767,-40.735
1552.54,-67.602,-49.197,-42.1,-40.823,-40.764,-40.733
1552.56,-67.783,-49.206,-42.114,-40.822,-40.763,-40.735
1552.58,-67.477,-49.188,-42.114,-40.825,-40.767,-40.751
1552.6,-67.629,-49.209,-42.121,-40.837,-40.776,-40.757
1552.62,-67.59,-49.195,-42.132,-40.833,-40.786,-40.762
1552.64,-67.607,-49.209,-42.137,-40.84,-40.79,-40.764
1552.66,-67.564,-49.187,-42.145,-40.843,-40.792,-40.76
1552.68,-67.594,-49.175,-42.154,-40.849,-40.793,-40.758
1552.7,-67.621,-49.174,-42.142,-40.859,-40.803,-40.775
1552.72,-67.676,-49.174,-42.145,-40.859,-40.805,-40.767
1552.74,-67.661,-49.148,-42.147,-40.863,-40.808,-40.774
1552.76,-67.558,-49.161,-42.16,-40.864,-40.813,-40.782
1552.78,-67.552,-49.138,-42.167,-40.862,-40.81,-40.774
1552.8,-67.621,-49.127,-42.176,-40.861,-40.814,-40.787
1552.82,-67.773,-49.127,-42.162,-40.869,-40.826,-40.792
1552.84,-67.522,-49.128,-42.168,-40.87,-40.828,-40.793
1552.86,-67.42,-49.118,-42.179,-40.879,-40.825,-40.782
1552.88,-67.571,-49.1,-42.182,-40.883,-40.831,-40.792
1552.9,-67.396,-49.095,-42.171,-40.886,-40.835,-40.79
1552.92,-67.586,-49.091,-42.175,-40.885,-40.834,-40.792
1552.94,-67.403,-49.077,-42.175,-40.884,-40.833,-40.788
1552.96,-67.361,-49.081,-42.2,-40.887,-40.832,-40.795
1552.98,-67.326,-49.071,-42.187,-40.887,-40.837,-40.797
1553.0,-67.38,-49.044,-42.187,-40.891,-40.841,-40.802
1553.02,-67.378,-49.066,-42.189,-40.89,-40.845,-40.801
1553.04,-67.323,-49.066,-42.187,-40.891,-40.847,-40.802
1553.06,-67.256,-49.043,-42.185,-40.897,-40.847,-40.808
1553.08,-67.232,-49.059,-42.182,-40.899,-40.849,-40.813
1553.1,-67.373,-49.055,-42.176,-40.904,-40.855,-40.817
1553.12,-67.182,-49.059,-42.183,-40.904,-40.851,-40.823
1553.14,-67.29,-49.066,-42.185,-40.908,-40.845,-40.82
1553.16,-67.347,-49.077,-42.181,-40.909,-40.849,-40.823
1553.18,-67.136,-49.099,-42.185,-40.915,-40.856,-40.825
1553.2,-67.315,-49.105,-42.205,-40.92,-40.87,-40.83
1553.22,-67.085,-49.116,-42.2,-40.922,-40.866,-40.833
1553.24,-67.233,-49.12,-42.2,-40.927,-40.877,-40.837
1553.26,-67.205,-49.126,-42.2,-40.931,-40.883,-40.839
1553.28,-67.264,-49.152,-42.203,-40.933,-40.89,-40.842
1553.3,-67.321,-49.16,-42.195,-40.938,-40.892,-40.848
1553.32,-67.125,-49.171,-42.201,-40.943,-40.889,-40.855
1553.34,-67.229,-49.169,-42.198,-40.938,-40.892,-40.861
1553.36,-67.333,-49.158,-42.198,-40.948,-40.899,-40.862
1553.38,-67.219,-49.167,-42.196,-40.944,-40.895,-40.864
1553.4,-67.281,-49.157,-42.186,-40.945,-40.9,-40.859
1553.42,-67.298,-49.15,-42.184,-40.947,-40.892,-40.858
1553.44,-67.308,-49.185,-42.192,-40.943,-40.889,-40.86
1553.46,-67.212,-49.175,-42.198,-40.945,-40.891,-40.861
1553.48,-67.309,-49.163,-42.203,-40.945,-40.897,-40.864
1553.5,-67.33,-49.176,-42.203,-40.95,-40.9,-40.879
1553.52,-67.457,-49.18,-42.212,-40.947,-40.902,-40.879
1553.54,-67.342,-49.168,-42.216,-40.95,-40.901,-40.878
1553.56,-67.343,-49.147,-42.223,-40.954,-40.904,-40.87
1553.58,-67.4,-49.122,-42.222,-40.958,-40.91,-40.878
1553.6,-67.374,-49.128,-42.217,-40.971,-40.91,-40.893
1553.62,-67.339,-49.128,-42.219,-40.971,-40.911,-40.895
1553.64,-67.338,-49.12,-42.226,-40.98,-40.919,-40.899
1553.66,-67.294,-49.114,-42.239,-40.981,-40.924,-40.904
1553.68,-67.332,-49.103,-42.245,-40.979,-40.928,-40.897
1553.7,-67.283,-49.092,-42.247,-40.979,-40.922,-40.903
1553.72,-67.209,-49.098,-42.233,-40.985,-40.936,-40.91
1553.74,-67.258,-49.097,-42.241,-40.981,-40.939,-40.911
1553.76,-67.254,-49.079,-42.249,-40.975,-40.938,-40.92
1553.78,-67.229,-49.064,-42.248,-40.996,-40.945,-40.925
1553.8,-67.168,-49.063,-42.239,-40.997,-40.95,-40.924
1553.82,-67.217,-49.061,-42.245,-40.999,-40.949,-40.914
1553.84,-67.061,-49.046,-42.263,-41.001,-40.955,-40.916
1553.86,-67.094,-49.051,-42.264,-41.002,-40.95,-40.918
1553.88,-67.11,-49.034,-42.266,-41.009,-40.95,-40.925
1553.9,-67.123,-49.016,-42.269,-41.01,-40.954,-40.924
1553.92,-67.02,-49.033,-42.268,-41.013,-40.963,-40.926
1553.94,-67.013,-49.021,-42.263,-41.012,-40.962,-40.928
1553.96,-67.138,-49.025,-42.266,-41.015,-40.971,-40.929
1553.98,-66.948,-49.031,-42.268,-41.018,-40.968,-40.936
1554.0,-67.021,-49.027,-42.269,-41.022,-40.972,-40.937
1554.02,-66.897,-49.033,-42.271,-41.025,-40.964,-40.939
1554.04,-66.925,-49.032,-42.27,-41.029,-40.966,-40.942
1554.06,-66.897,-49.059,-42.27,-41.035,-40.977,-40.95
1554.08,-66.984,-49.066,-42.283,-41.041,-40.976,-40.953
1554.1,-66.888,-49.077,-42.293,-41.046,-40.98,-40.954
1554.12,-66.893,-49.08,-42.293,-41.05,-40.984,-40.957
1554.14,-66.85,-49.086,-42.299,-41.055,-40.997,-40.961
1554.16,-66.962,-49.096,-42.294,-41.053,-41.003,-40.964
1554.18,-66.933,-49.123,-42.295,-41.05,-41.006,-40.966
1554.2,-66.907,-49.128,-42.286,-41.054,-41.006,-40.97
1554.22,-66.958,-49.145,-42.293,-41.058,-41.008,-40.98
1554.24,-66.82,-49.126,-42.286,-41.058,-41.009,-40.981
1554.26,-67.082,-49.154,-42.289,-41.062,-41.012,-40.982
1554.28,-67.058,-49.161,-42.285,-41.07,-41.013,-40.983
1554.3,-66.898,-49.138,-42.278,-41.069,-41.017,-40.984
1554.32,-67.024,-49.14,-42.282,-41.07,-41.018,-40.986
1554.34,-66.955,-49.161,-42.295,-41.067,-41.009,-40.987
1554.36,-67.139,-49.149,-42.296,-41.065,-41.007,-40.992
1554.38,-66.91,-49.151,-42.296,-41.062,-41.014,-40.995
1554.4,-67.073,-49.15,-42.293,-41.059,-41.018,-40.997
1554.42,-67.111,-49.131,-42.303,-41.065,-41.018,-40.995
1554.44,-67.13,-49.121,-42.31,-41.058,-41.01,-40.995
1554.46,-67.251,-49.114,-42.309,-41.069,-41.014,-40.986
1554.48,-67.026,-49.105,-42.304,-41.064,-41.018,-40.986
1554.5,-66.901,-49.101,-42.31,-41.071,-41.014,-40.993
1554.52,-66.969,-49.075,-42.309,-41.074,-41.013,-40.998
1554.54,-67.125,-49.08,-42.321,-41.079,-41.019,-41.004
1554.56,-66.954,-49.075,-42.332,-41.082,-41.019,-41.004
1554.58,-67.046,-49.083,-42.337,-41.079,-41.025,-41.0
1554.6,-67.064,-49.065,-42.33,-41.079,-41.023,-40.995
1554.62,-66.857,-49.074,-42.336,-41.076,-41.032,-40.999
1554.64,-66.868,-49.062,-42.35,-41.07,-41.03,-41.0
1554.66,-67.032,-49.048,-42.352,-41.086,-41.032,-41.012
1554.68,-66.831,-49.029,-42.344,-41.093,-41.034,-41.016
1554.7,-66.855,-49.034,-42.341,-41.096,-41.044,-41.018
1554.72,-66.912,-49.015,-42.342,-41.102,-41.049,-41.011
1554.74,-66.881,-49.014,-42.36,-41.103,-41.047,-41.012
1554.76,-66.852,-49.013,-42.351,-41.102,-41.051,-41.014
1554.78,-66.851,-48.993,-42.352,-41.106,-41.049,-41.013
1554.8,-66.751,-48.999,-42.357,-41.104,-41.056,-41.014
1554.82,-66.827,-49.006,-42.353,-41.109,-41.059,-41.017
1554.84,-66.694,-48.983,-42.35,-41.111,-41.062,-41.018
1554.86,-66.764,-49.004,-42.36,-41.111,-41.067,-41.022
1554.88,-66.715,-48.999,-42.354,-41.119,-41.069,-41.028
1554.9,-66.754,-49.006,-42.353,-41.124,-41.067,-41.032
1554.92,-66.684,-49.01,-42.342,-41.124,-41.079,-41.035
1554.94,-66.724,-49.018,-42.345,-41.124,-41.079,-41.038
1554.96,-66.587,-49.03,-42.342,-41.127,-41.08,-41.034
1554.98,-66.673,-49.035,-42.356,-41.126,-41.069,-41.036
1555.0,-66.605,-49.05,-42.347,-41.13,-41.072,-41.039
1555.02,-66.685,-49.053,-42.36,-41.133,-41.08,-41.038
1555.04,-66.697,-49.062,-42.355,-41.131,-41.08,-41.037
1555.06,-66.639,-49.075,-42.349,-41.13,-41.089,-41.037
1555.08,-66.72,-49.088,-42.36,-41.134,-41.088,-41.039
1555.1,-66.687,-49.107,-42.342,-41.141,-41.083,-41.04
1555.12,-66.696,-49.107,-42.35,-41.128,-41.085,-41.043
1555.14,-66.67,-49.108,-42.344,-41.131,-41.085,-41.044
1555.16,-66.748,-49.132,-42.356,-41.141,-41.09,-41.053
1555.18,-66.695,-49.123,-42.354,-41.143,-41.094,-41.051
1555.2,-66.734,-49.099,-42.354,-41.151,-41.096,-41.057
1555.22,-66.761,-49.127,-42.361,-41.146,-41.094,-41.057
1555.24,-66.734,-49.131,-42.362,-41.144,-41.097,-41.073
1555.26,-66.813,-49.11,-42.37,-41.152,-41.097,-41.078
1555.28,-66.766,-49.113,-42.369,-41.158,-41.108,-41.073
1555.3,-66.747,-49.115,-42.369,-41.161,-41.119,-41.084
1555.32,-66.913,-49.096,-42.381,-41.165,-41.124,-41.09
1555.34,-66.862,-49.092,-42.382,-41.168,-41.114,-41.086
1555.36,-66.782,-49.072,-42.382,-41.16,-41.122,-41.079
1555.38,-66.741,-49.076,-42.381,-41.17,-41.122,-41.081
1555.4,-66.775,-49.067,-42.381,-41.175,-41.118,-41.085
1555.42,-66.745,-49.048,-42.383,-41.176,-41.117,-41.088
1555.44,-66.725,-49.055,-42.402,-41.172,-41.122,-41.096
1555.46,-66.702,-49.051,-42.403,-41.175,-41.121,-41.093
1555.48,-66.789,-49.046,-42.409,-41.173,-41.132,-41.091
1555.5,-66.703,-49.031,-42.404,-41.173,-41.137,-41.1
1555.52,-66.776,-49.033,-42.418,-41.182,-41.14,-41.111
1555.54,-66.721,-49.018,-42.415,-41.177,-41.135,-41.114
1555.56,-66.626,-49.008,-42.424,-41.194,-41.144,-41.128
1555.58,-66.625,-49.003,-42.419,-41.198,-41.144,-41.132
1555.6,-66.714,-48.999,-42.418,-41.201,-41.145,-41.124
1555.62,-66.618,-48.981,-42.43,-41.196,-41.155,-41.12
1555.64,-66.548,-48.989,-42.432,-41.207,-41.157,-41.124
1555.66,-66.564,-48.982,-42.428,-41.21,-41.156,-41.129
1555.68,-66.496,-48.977,-42.434,-41.215,-41.161,-41.133
1555.7,-66.573,-49.004,-42.438,-41.208,-41.167,-41.132
1555.72,-66.503,-48.987,-42.431,-41.21,-41.163,-41.132
1555.74,-66.505,-48.979,-42.438,-41.212,-41.166,-41.13
1555.76,-66.439,-48.981,-42.435,-41.21,-41.165,-41.133
1555.78,-66.44,-48.977,-42.436,-41.219,-41.167,-41.139
1555.8,-66.527,-48.99,-42.435,-41.22,-41.171,-41.138
1555.82,-66.516,-48.984,-42.436,-41.224,-41.175,-41.141
1555.84,-66.433,-49.003,-42.434,-41.232,-41.179,-41.147
1555.86,-66.433,-49.003,-42.442,-41.229,-41.177,-41.149
1555.88,-66.478,-49.024,-42.449,-41.236,-41.171,-41.152
1555.9,-66.409,-49.029,-42.447,-41.236,-41.177,-41.153
1555.92,-66.345,-49.038,-42.458,-41.237,-41.18,-41.156
1555.94,-66.357,-49.058,-42.455,-41.24,-41.18,-41.161
1555.96,-66.399,-49.069,-42.447,-41.242,-41.192,-41.159
1555.98,-66.368,-49.068,-42.447,-41.25,-41.195,-41.161
1556.0,-66.424,-49.098,-42.457,-41.249,-41.188,-41.164
1556.02,-66.554,-49.089,-42.458,-41.25,-41.189,-41.17
1556.04,-66.404,-49.106,-42.468,-41.259,-41.199,-41.173
1556.06,-66.504,-49.113,-42.459,-41.265,-41.208,-41.177
1556.08,-66.59,-49.091,-42.457,-41.268,-41.206,-41.178
1556.1,-66.46,-49.105,-42.458,-41.27,-41.204,-41.18
1556.12,-66.533,-49.126,-42.478,-41.269,-41.208,-41.194
1556.14,-66.529,-49.111,-42.476,-41.279,-41.217,-41.201
1556.16,-66.581,-49.094,-42.473,-41.278,-41.219,-41.205
1556.18,-66.493,-49.09,-42.47,-41.28,-41.225,-41.201
1556.2,-66.7,-49.09,-42.484,-41.29,-41.234,-41.2
1556.22,-66.596,-49.079,-42.491,-41.285,-41.232,-41.204
1556.24,-66.558,-49.056,-42.49,-41.286,-41.228,-41.214
1556.26,-66.579,-49.061,-42.488,-41.289,-41.235,-41.207
1556.28,-66.591,-49.062,-42.492,-41.292,-41.239,-41.207
1556.3,-66.489,-49.038,-42.497,-41.293,-41.231,-41.201
1556.32,-66.493,-49.044,-42.503,-41.293,-41.234,-41.21
1556.34,-66.56,-49.042,-42.512,-41.295,-41.241,-41.217
1556.36,-66.542,-49.046,-42.513,-41.295,-41.234,-41.222
1556.38,-66.423,-49.022,-42.509,-41.303,-41.244,-41.221
1556.4,-66.546,-49.027,-42.51,-41.294,-41.256,-41.222
1556.42,-66.409,-49.021,-42.522,-41.302,-41.259,-41.217
1556.44,-66.329,-49.009,-42.526,-41.3,-41.264,-41.221
1556.46,-66.518,-48.986,-42.522,-41.314,-41.262,-41.223
1556.48,-66.32,-49.002,-42.515,-41.319,-41.269,-41.223
1556.5,-66.308,-48.981,-42.522,-41.31,-41.263,-41.226
1556.52,-66.351,-48.978,-42.535,-41.313,-41.272,-41.232
1556.54,-66.372,-48.984,-42.534,-41.325,-41.272,-41.231
1556.56,-66.392,-48.963,-42.529,-41.329,-41.274,-41.244
1556.58,-66.268,-48.971,-42.542,-41.323,-41.273,-41.237
1556.6,-66.295,-48.975,-42.54,-41.326,-41.279,-41.238
1556.62,-66.297,-48.96,-42.535,-41.33,-41.28,-41.24
1556.64,-66.295,-48.975,-42.532,-41.334,-41.288,-41.243
1556.66,-66.216,-48.965,-42.534,-41.337,-41.288,-41.248
1556.68,-66.122,-48.981,-42.539,-41.347,-41.292,-41.251
1556.7,-66.192,-48.984,-42.539,-41.351,-41.302,-41.258
1556.72,-66.286,-48.993,-42.556,-41.352,-41.307,-41.258
1556.74,-66.213,-48.994,-42.546,-41.356,-41.309,-41.263
1556.76,-66.173,-49.014,-42.557,-41.361,-41.302,-41.267
1556.78,-66.135,-49.021,-42.552,-41.366,-41.304,-41.269
1556.8,-66.176,-49.032,-42.565,-41.37,-41.316,-41.277
1556.82,-66.235,-49.051,-42.567,-41.374,-41.32,-41.285
1556.84,-66.164,-49.063,-42.565,-41.375,-41.328,-41.283
1556.86,-66.115,-49.067,-42.563,-41.372,-41.331,-41.285
1556.88,-66.146,-49.085,-42.561,-41.385,-41.327,-41.288
1556.9,-66.223,-49.089,-42.557,-41.382,-41.329,-41.295
1556.92,-66.368,-49.102,-42.565,-41.386,-41.334,-41.296
1556.94,-66.076,-49.122,-42.578,-41.387,-41.34,-41.298
1556.96,-66.248,-49.118,-42.561,-41.395,-41.339,-41.3
1556.98,-66.273,-49.099,-42.559,-41.394,-41.338,-41.302
1557.0,-66.275,-49.126,-42.579,-41.395,-41.343,-41.313
1557.02,-66.377,-49.119,-42.581,-41.395,-41.352,-41.315
1557.04,-66.285,-49.098,-42.576,-41.4,-41.348,-41.324
1557.06,-66.316,-49.098,-42.576,-41.401,-41.352,-41.319
1557.08,-66.363,-49.095,-42.579,-41.399,-41.358,-41.323
1557.1,-66.298,-49.084,-42.598,-41.406,-41.36,-41.327
1557.12,-66.31,-49.086,-42.599,-41.406,-41.35,-41.332
1557.14,-66.356,-49.072,-42.601,-41.404,-41.352,-41.329
1557.16,-66.414,-49.084,-42.607,-41.414,-41.366,-41.346
1557.18,-66.301,-49.065,-42.605,-41.415,-41.365,-41.344
1557.2,-66.201,-49.057,-42.613,-41.421,-41.373,-41.344
1557.22,-66.353,-49.058,-42.63,-41.426,-41.371,-41.347
1557.24,-66.236,-49.061,-42.632,-41.423,-41.377,-41.356
1557.26,-66.29,-49.051,-42.637,-41.432,-41.382,-41.351
1557.28,-66.189,-49.044,-42.637,-41.435,-41.392,-41.369
1557.3,-66.208,-49.039,-42.663,-41.441,-41.398,-41.372
1557.32,-66.265,-49.03,-42.67,-41.451,-41.396,-41.372
1557.34,-66.161,-49.024,-42.668,-41.459,-41.401,-41.386
1557.36,-66.258,-49.025,-42.653,-41.465,-41.411,-41.388
1557.38,-66.109,-49.016,-42.661,-41.468,-41.409,-41.392
1557.4,-66.046,-49.002,-42.678,-41.473,-41.419,-41.387
1557.42,-66.081,-49.013,-42.682,-41.479,-41.428,-41.391
1557.44,-66.092,-48.996,-42.68,-41.491,-41.434,-41.403
1557.46,-66.123,-48.999,-42.687,-41.495,-41.438,-41.408
1557.48,-66.153,-49.004,-42.687,-41.495,-41.446,-41.413
1557.5,-66.022,-48.992,-42.69,-41.509,-41.449,-41.416
1557.52,-65.975,-49.009,-42.695,-41.509,-41.46,-41.419
1557.54,-66.114,-49.01,-42.696,-41.513,-41.463,-41.424
1557.56,-66.034,-49.009,-42.694,-41.52,-41.468,-41.433
1557.58,-65.897,-49.02,-42.692,-41.518,-41.467,-41.434
1557.6,-66.074,-49.031,-42.703,-41.527,-41.475,-41.438
1557.62,-65.886,-49.039,-42.699,-41.536,-41.48,-41.441
1557.64,-65.908,-49.039,-42.713,-41.534,-41.481,-41.446
1557.66,-66.021,-49.063,-42.717,-41.541,-41.476,-41.451
1557.68,-65.944,-49.072,-42.723,-41.548,-41.482,-41.457
1557.7,-65.946,-49.085,-42.73,-41.555,-41.495,-41.467
1557.72,-65.971,-49.102,-42.731,-41.561,-41.5,-41.464
1557.74,-65.978,-49.111,-42.728,-41.561,-41.512,-41.47
1557.76,-65.97,-49.122,-42.728,-41.567,-41.516,-41.479
1557.78,-65.955,-49.134,-42.734,-41.571,-41.508,-41.485
1557.8,-65.958,-49.135,-42.737,-41.577,-41.514,-41.49
1557.82,-66.042,-49.148,-42.743,-41.576,-41.525,-41.493
1557.84,-66.0,-49.151,-42.74,-41.582,-41.528,-41.492
1557.86,-66.008,-49.139,-42.738,-41.577,-41.527,-41.494
1557.88,-66.029,-49.148,-42.746,-41.582,-41.522,-41.495
1557.9,-66.113,-49.157,-42.752,-41.584,-41.53,-41.495
1557.92,-66.128,-49.155,-42.754,-41.582,-41.53,-41.497
1557.94,-66.109,-49.149,-42.76,-41.587,-41.533,-41.51
1557.96,-66.16,-49.153,-42.762,-41.599,-41.544,-41.517
1557.98,-66.071,-49.147,-42.776,-41.601,-41.556,-41.518
1558.0,-66.156,-49.146,-42.784,-41.603,-41.556,-41.529
1558.02,-66.064,-49.13,-42.796,-41.614,-41.553,-41.533
1558.04,-66.12,-49.152,-42.793,-41.608,-41.561,-41.536
1558.06,-66.055,-49.134,-42.804,-41.618,-41.57,-41.54
1558.08,-66.051,-49.122,-42.809,-41.629,-41.572,-41.547
1558.1,-66.086,-49.125,-42.825,-41.64,-41.587,-41.553
1558.12,-66.047,-49.118,-42.83,-41.645,-41.589,-41.561
1558.14,-66.069,-49.117,-42.839,-41.649,-41.599,-41.572
1558.16,-66.034,-49.108,-42.831,-41.647,-41.61,-41.579
1558.18,-65.977,-49.108,-42.842,-41.656,-41.614,-41.584
1558.2,-66.036,-49.106,-42.844,-41.663,-41.62,-41.591
1558.22,-65.951,-49.099,-42.848,-41.673,-41.616,-41.594
1558.24,-66.02,-49.094,-42.847,-41.678,-41.62,-41.6
1558.26,-65.908,-49.094,-42.852,-41.683,-41.634,-41.605
1558.28,-65.899,-49.077,-42.866,-41.69,-41.635,-41.607
1558.3,-65.919,-49.085,-42.872,-41.683,-41.645,-41.604
1558.32,-65.916,-49.073,-42.873,-41.699,-41.652,-41.608
1558.34,-65.851,-49.054,-42.879,-41.703,-41.65,-41.617
1558.36,-65.94,-49.066,-42.883,-41.709,-41.657,-41.626
1558.38,-65.876,-49.054,-42.884,-41.719,-41.668,-41.629
1558.4,-65.757,-49.063,-42.887,-41.725,-41.674,-41.638
1558.42,-65.86,-49.089,-42.892,-41.727,-41.685,-41.641
1558.44,-65.773,-49.083,-42.897,-41.73,-41.69,-41.643
1558.46,-65.819,-49.095,-42.896,-41.736,-41.691,-41.653
1558.48,-65.732,-49.103,-42.897,-41.737,-41.694,-41.654
1558.5,-65.8,-49.122,-42.899,-41.75,-41.697,-41.658
1558.52,-65.753,-49.128,-42.913,-41.754,-41.702,-41.664
1558.54,-65.751,-49.133,-42.919,-41.757,-41.707,-41.668
1558.56,-65.69,-49.147,-42.924,-41.768,-41.707,-41.678
1558.58,-65.776,-49.156,-42.93,-41.772,-41.714,-41.68
1558.6,-65.773,-49.177,-42.926,-41.779,-41.719,-41.692
1558.62,-65.739,-49.195,-42.932,-41.783,-41.73,-41.691
1558.64,-65.789,-49.206,-42.929,-41.788,-41.74,-41.698
1558.66,-65.78,-49.213,-42.935,-41.799,-41.742,-41.707
1558.68,-65.748,-49.213,-42.942,-41.801,-41.742,-41.714
1558.7,-65.767,-49.223,-42.943,-41.808,-41.75,-41.72
1558.72,-65.826,-49.23,-42.949,-41.808,-41.766,-41.728
1558.74,-65.89,-49.227,-42.942,-41.815,-41.764,-41.732
1558.76,-65.824,-49.227,-42.953,-41.823,-41.768,-41.736
1558.78,-65.939,-49.247,-42.965,-41.829,-41.776,-41.749
1558.8,-65.864,-49.252,-42.973,-41.837,-41.786,-41.747
1558.82,-65.875,-49.243,-42.987,-41.839,-41.789,-41.764
1558.84,-65.922,-49.264,-42.989,-41.849,-41.804,-41.773
1558.86,-65.871,-49.255,-43.0,-41.859,-41.81,-41.775
1558.88,-65.936,-49.253,-43.014,-41.863,-41.82,-41.785
1558.9,-65.866,-49.246,-43.019,-41.87,-41.815,-41.789
1558.92,-65.798,-49.253,-43.02,-41.879,-41.824,-41.801
1558.94,-65.907,-49.241,-43.028,-41.887,-41.842,-41.809
1558.96,-65.856,-49.227,-43.036,-41.892,-41.845,-41.822
1558.98,-65.856,-49.241,-43.046,-41.901,-41.857,-41.825
1559.0,-65.86,-49.232,-43.066,-41.915,-41.861,-41.833
1559.02,-65.919,-49.242,-43.074,-41.918,-41.877,-41.846
1559.04,-65.797,-49.227,-43.077,-41.924,-41.886,-41.852
1559.06,-65.825,-49.234,-43.077,-41.927,-41.897,-41.871
1559.08,-65.846,-49.229,-43.083,-41.942,-41.905,-41.883
1559.1,-65.804,-49.224,-43.089,-41.947,-41.91,-41.879
1559.12,-65.768,-49.215,-43.104,-41.963,-41.913,-41.897
1559.14,-65.699,-49.219,-43.104,-41.971,-41.926,-41.908
1559.16,-65.711,-49.207,-43.125,-41.98,-41.934,-41.904
1559.18,-65.781,-49.216,-43.14,-41.981,-41.947,-41.915
1559.2,-65.658,-49.224,-43.14,-41.998,-41.961,-41.924
1559.22,-65.68,-49.201,-43.148,-42.012,-41.966,-41.932
1559.24,-65.631,-49.187,-43.161,-42.014,-41.973,-41.938
1559.26,-65.749,-49.181,-43.158,-42.022,-41.982,-41.943
1559.28,-65.556,-49.195,-43.163,-42.029,-41.987,-41.95
1559.3,-65.669,-49.227,-43.177,-42.033,-41.997,-41.957
1559.32,-65.645,-49.232,-43.184,-42.041,-42.008,-41.965
1559.34,-65.604,-49.245,-43.182,-42.056,-42.009,-41.982
1559.36,-65.584,-49.249,-43.186,-42.057,-42.018,-41.986
1559.38,-65.506,-49.267,-43.189,-42.071,-42.029,-41.992
1559.4,-65.496,-49.276,-43.198,-42.075,-42.034,-41.997
1559.42,-65.534,-49.291,-43.214,-42.083,-42.04,-42.004
1559.44,-65.495,-49.309,-43.213,-42.092,-42.039,-42.013
1559.46,-65.619,-49.322,-43.23,-42.103,-42.052,-42.023
1559.48,-65.573,-49.333,-43.229,-42.106,-42.063,-42.03
1559.5,-65.532,-49.35,-43.241,-42.119,-42.074,-42.038
1559.52,-65.52,-49.37,-43.247,-42.129,-42.09,-42.051
1559.54,-65.567,-49.37,-43.246,-42.145,-42.098,-42.06
1559.56,-65.586,-49.368,-43.265,-42.15,-42.1,-42.076
1559.58,-65.544,-49.392,-43.266,-42.163,-42.106,-42.083
1559.6,-65.566,-49.411,-43.265,-42.161,-42.123,-42.091
1559.62,-65.611,-49.4,-43.275,-42.175,-42.128,-42.095
1559.64,-65.719,-49.39,-43.281,-42.182,-42.134,-42.103
1559.66,-65.669,-49.401,-43.293,-42.198,-42.139,-42.111
1559.68,-65.597,-49.421,-43.303,-42.204,-42.149,-42.117
1559.7,-65.672,-49.423,-43.315,-42.211,-42.16,-42.127
1559.72,-65.69,-49.426,-43.317,-42.214,-42.17,-42.143
1559.74,-65.655,-49.426,-43.326,-42.228,-42.183,-42.156
1559.76,-65.702,-49.425,-43.346,-42.239,-42.194,-42.165
1559.78,-65.751,-49.412,-43.357,-42.247,-42.199,-42.18
1559.8,-65.702,-49.427,-43.362,-42.256,-42.204,-42.181
1559.82,-65.566,-49.433,-43.372,-42.265,-42.215,-42.191
1559.84,-65.777,-49.414,-43.376,-42.275,-42.223,-42.199
1559.86,-65.612,-49.42,-43.382,-42.274,-42.225,-42.194
1559.88,-65.615,-49.409,-43.404,-42.289,-42.233,-42.206
1559.9,-65.655,-49.41,-43.415,-42.299,-42.247,-42.223
1559.92,-65.619,-49.404,-43.415,-42.306,-42.258,-42.229
1559.94,-65.567,-49.41,-43.425,-42.306,-42.27,-42.238
1559.96,-65.669,-49.416,-43.442,-42.32,-42.282,-42.251
1559.98,-65.667,-49.407,-43.453,-42.33,-42.287,-42.253
1560.0,-65.566,-49.397,-43.457,-42.348,-42.3,-42.26
