70BCSV 	
// AQ6370B OPTICAL SPECTRUM ANALYZER //                 
25
"CTRWL",1560.000000
"SPAN", 120.000000
"START WL",1500.000000
"STOP WL",1620.000000
"WLFREQ", 0
"REFL",-38.6
"LSCL", 6.0
"RESLN",0.500
"AVG",   1
"SMPLAUTO",      1
"SMPL",       1201
"SMPLINTVL",0.1000
"HIGH1"
"MEAS"
"LSUNT",0
"NMSKH","OFF"
"RESCOR",0
"RESPARM", 9740
"FREQPARM", 9740






"[TRACE DATA]"
1500.0000, -77.503
1500.1000, -76.394
1500.2000, -77.149
1500.3000, -76.881
1500.4000, -76.514
1500.5000, -77.729
1500.6000, -77.565
1500.7000, -77.841
1500.8000, -78.315
1500.9000, -79.666
1501.0000, -79.598
1501.1000, -80.640
1501.2000, -79.112
1501.3000, -79.824
1501.4000, -80.018
1501.5000, -79.207
1501.6000, -80.507
1501.7000, -79.945
1501.8000, -81.263
1501.9000, -82.697
1502.0000, -79.362
1502.1000, -78.469
1502.2000, -79.111
1502.3000, -77.679
1502.4000, -77.914
1502.5000, -77.398
1502.6000, -76.628
1502.7000, -75.874
1502.8000, -75.721
1502.9000, -74.963
1503.0000, -74.447
1503.1000, -73.411
1503.2000, -72.580
1503.3000, -72.626
1503.4000, -71.961
1503.5000, -71.661
1503.6000, -71.344
1503.7000, -70.847
1503.8000, -70.404
1503.9000, -70.087
1504.0000, -69.748
1504.1000, -69.437
1504.2000, -69.215
1504.3000, -68.749
1504.4000, -68.673
1504.5000, -68.318
1504.6000, -68.006
1504.7000, -67.861
1504.8000, -67.629
1504.9000, -67.456
1505.0000, -67.261
1505.1000, -66.999
1505.2000, -66.950
1505.3000, -66.784
1505.4000, -66.486
1505.5000, -66.407
1505.6000, -66.383
1505.7000, -66.223
1505.8000, -66.171
1505.9000, -66.090
1506.0000, -65.982
1506.1000, -65.905
1506.2000, -65.850
1506.3000, -65.756
1506.4000, -65.731
1506.5000, -65.662
1506.6000, -65.617
1506.7000, -65.521
1506.8000, -65.563
1506.9000, -65.584
1507.0000, -65.508
1507.1000, -65.477
1507.2000, -65.580
1507.3000, -65.570
1507.4000, -65.601
1507.5000, -65.584
1507.6000, -65.673
1507.7000, -65.738
1507.8000, -65.813
1507.9000, -65.873
1508.0000, -65.958
1508.1000, -66.110
1508.2000, -66.125
1508.3000, -66.295
1508.4000, -66.465
1508.5000, -66.668
1508.6000, -66.846
1508.7000, -67.118
1508.8000, -67.342
1508.9000, -67.522
1509.0000, -67.977
1509.1000, -68.232
1509.2000, -68.579
1509.3000, -69.104
1509.4000, -69.367
1509.5000, -69.717
1509.6000, -70.339
1509.7000, -70.997
1509.8000, -71.245
1509.9000, -71.868
1510.0000, -72.694
1510.1000, -72.845
1510.2000, -73.928
1510.3000, -74.313
1510.4000, -74.753
1510.5000, -75.290
1510.6000, -75.537
1510.7000, -74.829
1510.8000, -74.569
1510.9000, -74.268
1511.0000, -73.581
1511.1000, -72.866
1511.2000, -71.824
1511.3000, -70.750
1511.4000, -70.436
1511.5000, -69.837
1511.6000, -68.917
1511.7000, -68.300
1511.8000, -67.767
1511.9000, -67.199
1512.0000, -66.666
1512.1000, -66.173
1512.2000, -65.730
1512.3000, -65.305
1512.4000, -64.850
1512.5000, -64.425
1512.6000, -64.094
1512.7000, -63.689
1512.8000, -63.356
1512.9000, -63.014
1513.0000, -62.720
1513.1000, -62.430
1513.2000, -62.166
1513.3000, -61.906
1513.4000, -61.665
1513.5000, -61.453
1513.6000, -61.180
1513.7000, -61.032
1513.8000, -60.830
1513.9000, -60.617
1514.0000, -60.464
1514.1000, -60.317
1514.2000, -60.186
1514.3000, -60.053
1514.4000, -59.937
1514.5000, -59.850
1514.6000, -59.797
1514.7000, -59.738
1514.8000, -59.657
1514.9000, -59.636
1515.0000, -59.594
1515.1000, -59.590
1515.2000, -59.548
1515.3000, -59.530
1515.4000, -59.543
1515.5000, -59.530
1515.6000, -59.534
1515.7000, -59.593
1515.8000, -59.590
1515.9000, -59.659
1516.0000, -59.738
1516.1000, -59.800
1516.2000, -59.890
1516.3000, -59.984
1516.4000, -60.116
1516.5000, -60.246
1516.6000, -60.384
1516.7000, -60.565
1516.8000, -60.745
1516.9000, -60.933
1517.0000, -61.194
1517.1000, -61.412
1517.2000, -61.696
1517.3000, -61.980
1517.4000, -62.306
1517.5000, -62.653
1517.6000, -63.104
1517.7000, -63.485
1517.8000, -63.931
1517.9000, -64.477
1518.0000, -64.924
1518.1000, -65.429
1518.2000, -65.790
1518.3000, -66.302
1518.4000, -66.714
1518.5000, -66.953
1518.6000, -67.178
1518.7000, -67.118
1518.8000, -66.849
1518.9000, -66.594
1519.0000, -65.945
1519.1000, -65.280
1519.2000, -64.519
1519.3000, -63.713
1519.4000, -62.931
1519.5000, -62.199
1519.6000, -61.442
1519.7000, -60.732
1519.8000, -59.996
1519.9000, -59.302
1520.0000, -58.566
1520.1000, -57.905
1520.2000, -57.228
1520.3000, -56.626
1520.4000, -56.026
1520.5000, -55.477
1520.6000, -54.944
1520.7000, -54.388
1520.8000, -53.847
1520.9000, -53.324
1521.0000, -52.806
1521.1000, -52.327
1521.2000, -51.853
1521.3000, -51.398
1521.4000, -50.950
1521.5000, -50.517
1521.6000, -50.098
1521.7000, -49.703
1521.8000, -49.285
1521.9000, -48.898
1522.0000, -48.532
1522.1000, -48.192
1522.2000, -47.817
1522.3000, -47.481
1522.4000, -47.156
1522.5000, -46.821
1522.6000, -46.517
1522.7000, -46.210
1522.8000, -45.926
1522.9000, -45.648
1523.0000, -45.374
1523.1000, -45.101
1523.2000, -44.828
1523.3000, -44.569
1523.4000, -44.315
1523.5000, -44.072
1523.6000, -43.844
1523.7000, -43.617
1523.8000, -43.392
1523.9000, -43.197
1524.0000, -42.986
1524.1000, -42.794
1524.2000, -42.610
1524.3000, -42.437
1524.4000, -42.277
1524.5000, -42.118
1524.6000, -41.987
1524.7000, -41.867
1524.8000, -41.739
1524.9000, -41.625
1525.0000, -41.522
1525.1000, -41.425
1525.2000, -41.358
1525.3000, -41.294
1525.4000, -41.233
1525.5000, -41.170
1525.6000, -41.099
1525.7000, -41.038
1525.8000, -40.979
1525.9000, -40.924
1526.0000, -40.890
1526.1000, -40.855
1526.2000, -40.822
1526.3000, -40.783
1526.4000, -40.712
1526.5000, -40.629
1526.6000, -40.521
1526.7000, -40.392
1526.8000, -40.271
1526.9000, -40.119
1527.0000, -39.967
1527.1000, -39.785
1527.2000, -39.596
1527.3000, -39.363
1527.4000, -39.109
1527.5000, -38.843
1527.6000, -38.565
1527.7000, -38.268
1527.8000, -37.965
1527.9000, -37.673
1528.0000, -37.360
1528.1000, -37.026
1528.2000, -36.664
1528.3000, -36.293
1528.4000, -35.928
1528.5000, -35.611
1528.6000, -35.256
1528.7000, -34.919
1528.8000, -34.548
1528.9000, -34.187
1529.0000, -33.842
1529.1000, -33.451
1529.2000, -33.093
1529.3000, -32.749
1529.4000, -32.357
1529.5000, -31.987
1529.6000, -31.641
1529.7000, -31.299
1529.8000, -30.968
1529.9000, -30.634
1530.0000, -30.318
1530.1000, -30.038
1530.2000, -29.783
1530.3000, -29.564
1530.4000, -29.343
1530.5000, -29.125
1530.6000, -28.896
1530.7000, -28.666
1530.8000, -28.508
1530.9000, -28.310
1531.0000, -28.131
1531.1000, -27.984
1531.2000, -27.854
1531.3000, -27.738
1531.4000, -27.675
1531.5000, -27.556
1531.6000, -27.495
1531.7000, -27.444
1531.8000, -27.451
1531.9000, -27.412
1532.0000, -27.422
1532.1000, -27.443
1532.2000, -27.486
1532.3000, -27.517
1532.4000, -27.594
1532.5000, -27.682
1532.6000, -27.776
1532.7000, -27.890
1532.8000, -28.073
1532.9000, -28.238
1533.0000, -28.436
1533.1000, -28.663
1533.2000, -28.922
1533.3000, -29.152
1533.4000, -29.440
1533.5000, -29.737
1533.6000, -30.083
1533.7000, -30.402
1533.8000, -30.782
1533.9000, -31.163
1534.0000, -31.502
1534.1000, -31.875
1534.2000, -32.321
1534.3000, -32.783
1534.4000, -33.241
1534.5000, -33.711
1534.6000, -34.188
1534.7000, -34.692
1534.8000, -35.253
1534.9000, -35.819
1535.0000, -36.381
1535.1000, -36.962
1535.2000, -37.537
1535.3000, -38.129
1535.4000, -38.750
1535.5000, -39.383
1535.6000, -40.016
1535.7000, -40.637
1535.8000, -41.292
1535.9000, -41.964
1536.0000, -42.596
1536.1000, -43.260
1536.2000, -43.949
1536.3000, -44.664
1536.4000, -45.427
1536.5000, -46.184
1536.6000, -46.977
1536.7000, -47.790
1536.8000, -48.615
1536.9000, -49.419
1537.0000, -50.386
1537.1000, -51.046
1537.2000, -51.935
1537.3000, -52.820
1537.4000, -53.785
1537.5000, -54.761
1537.6000, -55.737
1537.7000, -56.660
1537.8000, -57.498
1537.9000, -58.152
1538.0000, -58.538
1538.1000, -58.633
1538.2000, -58.428
1538.3000, -58.005
1538.4000, -57.476
1538.5000, -56.850
1538.6000, -56.217
1538.7000, -55.607
1538.8000, -55.020
1538.9000, -54.489
1539.0000, -53.986
1539.1000, -53.519
1539.2000, -53.083
1539.3000, -52.684
1539.4000, -52.311
1539.5000, -51.935
1539.6000, -51.600
1539.7000, -51.275
1539.8000, -50.988
1539.9000, -50.728
1540.0000, -50.499
1540.1000, -50.288
1540.2000, -50.112
1540.3000, -49.945
1540.4000, -49.802
1540.5000, -49.673
1540.6000, -49.533
1540.7000, -49.436
1540.8000, -49.359
1540.9000, -49.321
1541.0000, -49.266
1541.1000, -49.225
1541.2000, -49.188
1541.3000, -49.173
1541.4000, -49.156
1541.5000, -49.150
1541.6000, -49.167
1541.7000, -49.186
1541.8000, -49.219
1541.9000, -49.258
1542.0000, -49.301
1542.1000, -49.360
1542.2000, -49.416
1542.3000, -49.476
1542.4000, -49.550
1542.5000, -49.617
1542.6000, -49.692
1542.7000, -49.753
1542.8000, -49.812
1542.9000, -49.878
1543.0000, -49.937
1543.1000, -49.988
1543.2000, -50.035
1543.3000, -50.063
1543.4000, -50.094
1543.5000, -50.112
1543.6000, -50.124
1543.7000, -50.118
1543.8000, -50.078
1543.9000, -50.050
1544.0000, -50.012
1544.1000, -49.977
1544.2000, -49.927
1544.3000, -49.870
1544.4000, -49.779
1544.5000, -49.678
1544.6000, -49.557
1544.7000, -49.420
1544.8000, -49.266
1544.9000, -49.127
1545.0000, -48.975
1545.1000, -48.823
1545.2000, -48.686
1545.3000, -48.548
1545.4000, -48.416
1545.5000, -48.246
1545.6000, -48.092
1545.7000, -47.937
1545.8000, -47.773
1545.9000, -47.632
1546.0000, -47.487
1546.1000, -47.351
1546.2000, -47.223
1546.3000, -47.114
1546.4000, -47.013
1546.5000, -46.900
1546.6000, -46.795
1546.7000, -46.685
1546.8000, -46.592
1546.9000, -46.504
1547.0000, -46.431
1547.1000, -46.384
1547.2000, -46.327
1547.3000, -46.293
1547.4000, -46.273
1547.5000, -46.257
1547.6000, -46.263
1547.7000, -46.269
1547.8000, -46.283
1547.9000, -46.312
1548.0000, -46.342
1548.1000, -46.385
1548.2000, -46.419
1548.3000, -46.472
1548.4000, -46.520
1548.5000, -46.581
1548.6000, -46.662
1548.7000, -46.752
1548.8000, -46.868
1548.9000, -46.994
1549.0000, -47.154
1549.1000, -47.339
1549.2000, -47.536
1549.3000, -47.759
1549.4000, -48.000
1549.5000, -48.247
1549.6000, -48.511
1549.7000, -48.820
1549.8000, -49.174
1549.9000, -49.542
1550.0000, -49.940
1550.1000, -50.351
1550.2000, -50.770
1550.3000, -51.196
1550.4000, -51.669
1550.5000, -52.194
1550.6000, -52.776
1550.7000, -53.405
1550.8000, -54.097
1550.9000, -54.851
1551.0000, -55.647
1551.1000, -56.481
1551.2000, -57.325
1551.3000, -58.178
1551.4000, -58.976
1551.5000, -59.662
1551.6000, -60.167
1551.7000, -60.379
1551.8000, -60.361
1551.9000, -60.053
1552.0000, -59.576
1552.1000, -58.948
1552.2000, -58.201
1552.3000, -57.474
1552.4000, -56.723
1552.5000, -55.991
1552.6000, -55.344
1552.7000, -54.750
1552.8000, -54.217
1552.9000, -53.704
1553.0000, -53.216
1553.1000, -52.754
1553.2000, -52.311
1553.3000, -51.891
1553.4000, -51.515
1553.5000, -51.169
1553.6000, -50.879
1553.7000, -50.604
1553.8000, -50.356
1553.9000, -50.109
1554.0000, -49.851
1554.1000, -49.601
1554.2000, -49.377
1554.3000, -49.170
1554.4000, -48.976
1554.5000, -48.805
1554.6000, -48.651
1554.7000, -48.516
1554.8000, -48.404
1554.9000, -48.307
1555.0000, -48.226
1555.1000, -48.148
1555.2000, -48.073
1555.3000, -48.012
1555.4000, -47.964
1555.5000, -47.925
1555.6000, -47.903
1555.7000, -47.879
1555.8000, -47.863
1555.9000, -47.856
1556.0000, -47.861
1556.1000, -47.872
1556.2000, -47.910
1556.3000, -47.953
1556.4000, -47.997
1556.5000, -48.049
1556.6000, -48.099
1556.7000, -48.172
1556.8000, -48.265
1556.9000, -48.370
1557.0000, -48.486
1557.1000, -48.632
1557.2000, -48.784
1557.3000, -48.942
1557.4000, -49.114
1557.5000, -49.301
1557.6000, -49.513
1557.7000, -49.724
1557.8000, -49.936
1557.9000, -50.144
1558.0000, -50.367
1558.1000, -50.592
1558.2000, -50.860
1558.3000, -51.149
1558.4000, -51.450
1558.5000, -51.764
1558.6000, -52.090
1558.7000, -52.411
1558.8000, -52.723
1558.9000, -53.045
1559.0000, -53.388
1559.1000, -53.771
1559.2000, -54.185
1559.3000, -54.644
1559.4000, -55.116
1559.5000, -55.540
1559.6000, -55.975
1559.7000, -56.437
1559.8000, -56.898
1559.9000, -57.420
1560.0000, -57.928
1560.1000, -58.342
1560.2000, -58.692
1560.3000, -58.952
1560.4000, -59.153
1560.5000, -59.215
1560.6000, -59.248
1560.7000, -59.188
1560.8000, -59.107
1560.9000, -59.019
1561.0000, -58.830
1561.1000, -58.644
1561.2000, -58.425
1561.3000, -58.242
1561.4000, -58.022
1561.5000, -57.815
1561.6000, -57.581
1561.7000, -57.358
1561.8000, -57.150
1561.9000, -56.967
1562.0000, -56.808
1562.1000, -56.654
1562.2000, -56.520
1562.3000, -56.376
1562.4000, -56.257
1562.5000, -56.154
1562.6000, -56.088
1562.7000, -55.981
1562.8000, -55.891
1562.9000, -55.797
1563.0000, -55.731
1563.1000, -55.664
1563.2000, -55.591
1563.3000, -55.524
1563.4000, -55.467
1563.5000, -55.421
1563.6000, -55.407
1563.7000, -55.413
1563.8000, -55.423
1563.9000, -55.467
1564.0000, -55.519
1564.1000, -55.569
1564.2000, -55.649
1564.3000, -55.744
1564.4000, -55.858
1564.5000, -55.951
1564.6000, -56.078
1564.7000, -56.180
1564.8000, -56.271
1564.9000, -56.354
1565.0000, -56.428
1565.1000, -56.554
1565.2000, -56.665
1565.3000, -56.803
1565.4000, -56.990
1565.5000, -57.176
1565.6000, -57.401
1565.7000, -57.631
1565.8000, -57.860
1565.9000, -58.117
1566.0000, -58.361
1566.1000, -58.617
1566.2000, -58.888
1566.3000, -59.115
1566.4000, -59.384
1566.5000, -59.710
1566.6000, -60.015
1566.7000, -60.376
1566.8000, -60.750
1566.9000, -61.165
1567.0000, -61.595
1567.1000, -61.987
1567.2000, -62.403
1567.3000, -62.801
1567.4000, -63.251
1567.5000, -63.663
1567.6000, -64.149
1567.7000, -64.472
1567.8000, -64.827
1567.9000, -65.091
1568.0000, -65.446
1568.1000, -65.630
1568.2000, -65.951
1568.3000, -65.995
1568.4000, -66.100
1568.5000, -65.974
1568.6000, -65.934
1568.7000, -65.827
1568.8000, -65.687
1568.9000, -65.512
1569.0000, -65.445
1569.1000, -65.343
1569.2000, -65.212
1569.3000, -65.110
1569.4000, -64.862
1569.5000, -64.715
1569.6000, -64.497
1569.7000, -64.367
1569.8000, -64.166
1569.9000, -64.027
1570.0000, -63.927
1570.1000, -63.794
1570.2000, -63.693
1570.3000, -63.474
1570.4000, -63.430
1570.5000, -63.236
1570.6000, -63.189
1570.7000, -63.104
1570.8000, -63.044
1570.9000, -62.993
1571.0000, -62.964
1571.1000, -62.991
1571.2000, -63.035
1571.3000, -63.035
1571.4000, -63.042
1571.5000, -63.128
1571.6000, -63.169
1571.7000, -63.276
1571.8000, -63.376
1571.9000, -63.475
1572.0000, -63.556
1572.1000, -63.702
1572.2000, -63.889
1572.3000, -63.962
1572.4000, -64.133
1572.5000, -64.363
1572.6000, -64.601
1572.7000, -64.723
1572.8000, -64.967
1572.9000, -65.204
1573.0000, -65.413
1573.1000, -65.654
1573.2000, -65.898
1573.3000, -66.166
1573.4000, -66.440
1573.5000, -66.817
1573.6000, -67.110
1573.7000, -67.413
1573.8000, -67.710
1573.9000, -68.056
1574.0000, -68.602
1574.1000, -68.844
1574.2000, -69.284
1574.3000, -69.646
1574.4000, -69.988
1574.5000, -70.766
1574.6000, -71.107
1574.7000, -71.696
1574.8000, -71.943
1574.9000, -72.805
1575.0000, -73.095
1575.1000, -73.410
1575.2000, -73.795
1575.3000, -74.124
1575.4000, -74.815
1575.5000, -73.733
1575.6000, -74.600
1575.7000, -74.236
1575.8000, -73.016
1575.9000, -72.821
1576.0000, -72.369
1576.1000, -71.665
1576.2000, -70.863
1576.3000, -70.423
1576.4000, -69.745
1576.5000, -69.545
1576.6000, -68.731
1576.7000, -68.315
1576.8000, -67.772
1576.9000, -67.504
1577.0000, -66.952
1577.1000, -66.590
1577.2000, -66.209
1577.3000, -65.981
1577.4000, -65.559
1577.5000, -65.199
1577.6000, -64.876
1577.7000, -64.649
1577.8000, -64.319
1577.9000, -64.015
1578.0000, -63.769
1578.1000, -63.596
1578.2000, -63.322
1578.3000, -63.093
1578.4000, -62.941
1578.5000, -62.733
1578.6000, -62.556
1578.7000, -62.393
1578.8000, -62.236
1578.9000, -62.108
1579.0000, -61.905
1579.1000, -61.755
1579.2000, -61.597
1579.3000, -61.481
1579.4000, -61.310
1579.5000, -61.177
1579.6000, -61.077
1579.7000, -60.970
1579.8000, -60.868
1579.9000, -60.778
1580.0000, -60.702
1580.1000, -60.654
1580.2000, -60.552
1580.3000, -60.496
1580.4000, -60.457
1580.5000, -60.394
1580.6000, -60.336
1580.7000, -60.297
1580.8000, -60.239
1580.9000, -60.199
1581.0000, -60.183
1581.1000, -60.150
1581.2000, -60.153
1581.3000, -60.113
1581.4000, -60.094
1581.5000, -60.065
1581.6000, -60.103
1581.7000, -60.100
1581.8000, -60.123
1581.9000, -60.159
1582.0000, -60.177
1582.1000, -60.230
1582.2000, -60.245
1582.3000, -60.271
1582.4000, -60.343
1582.5000, -60.364
1582.6000, -60.440
1582.7000, -60.500
1582.8000, -60.570
1582.9000, -60.640
1583.0000, -60.722
1583.1000, -60.812
1583.2000, -60.896
1583.3000, -61.023
1583.4000, -61.119
1583.5000, -61.266
1583.6000, -61.381
1583.7000, -61.533
1583.8000, -61.644
1583.9000, -61.835
1584.0000, -61.960
1584.1000, -62.124
1584.2000, -62.279
1584.3000, -62.440
1584.4000, -62.622
1584.5000, -62.790
1584.6000, -62.964
1584.7000, -63.157
1584.8000, -63.314
1584.9000, -63.566
1585.0000, -63.773
1585.1000, -63.988
1585.2000, -64.231
1585.3000, -64.436
1585.4000, -64.695
1585.5000, -64.950
1585.6000, -65.209
1585.7000, -65.490
1585.8000, -65.773
1585.9000, -66.061
1586.0000, -66.413
1586.1000, -66.679
1586.2000, -67.050
1586.3000, -67.372
1586.4000, -67.852
1586.5000, -68.143
1586.6000, -68.502
1586.7000, -68.902
1586.8000, -69.327
1586.9000, -69.583
1587.0000, -70.238
1587.1000, -70.696
1587.2000, -70.717
1587.3000, -71.457
1587.4000, -71.799
1587.5000, -72.353
1587.6000, -71.897
1587.7000, -72.559
1587.8000, -72.904
1587.9000, -72.627
1588.0000, -73.260
1588.1000, -72.901
1588.2000, -72.794
1588.3000, -72.928
1588.4000, -72.250
1588.5000, -72.297
1588.6000, -71.778
1588.7000, -71.311
1588.8000, -71.502
1588.9000, -70.594
1589.0000, -70.657
1589.1000, -69.988
1589.2000, -69.902
1589.3000, -69.583
1589.4000, -69.281
1589.5000, -68.739
1589.6000, -68.634
1589.7000, -68.494
1589.8000, -67.949
1589.9000, -68.008
1590.0000, -67.538
1590.1000, -67.287
1590.2000, -67.195
1590.3000, -66.894
1590.4000, -66.736
1590.5000, -66.587
1590.6000, -66.223
1590.7000, -66.215
1590.8000, -66.033
1590.9000, -65.917
1591.0000, -65.652
1591.1000, -65.562
1591.2000, -65.537
1591.3000, -65.351
1591.4000, -65.203
1591.5000, -65.169
1591.6000, -65.037
1591.7000, -64.942
1591.8000, -64.919
1591.9000, -64.814
1592.0000, -64.788
1592.1000, -64.624
1592.2000, -64.692
1592.3000, -64.575
1592.4000, -64.556
1592.5000, -64.540
1592.6000, -64.493
1592.7000, -64.509
1592.8000, -64.521
1592.9000, -64.502
1593.0000, -64.491
1593.1000, -64.467
1593.2000, -64.499
1593.3000, -64.524
1593.4000, -64.497
1593.5000, -64.544
1593.6000, -64.532
1593.7000, -64.602
1593.8000, -64.587
1593.9000, -64.655
1594.0000, -64.692
1594.1000, -64.790
1594.2000, -64.876
1594.3000, -64.852
1594.4000, -64.962
1594.5000, -65.058
1594.6000, -65.184
1594.7000, -65.151
1594.8000, -65.347
1594.9000, -65.385
1595.0000, -65.543
1595.1000, -65.571
1595.2000, -65.780
1595.3000, -65.859
1595.4000, -66.021
1595.5000, -65.978
1595.6000, -66.126
1595.7000, -66.265
1595.8000, -66.404
1595.9000, -66.526
1596.0000, -66.691
1596.1000, -66.884
1596.2000, -66.991
1596.3000, -67.063
1596.4000, -67.270
1596.5000, -67.522
1596.6000, -67.671
1596.7000, -67.854
1596.8000, -68.109
1596.9000, -68.080
1597.0000, -68.272
1597.1000, -68.634
1597.2000, -68.772
1597.3000, -69.002
1597.4000, -69.504
1597.5000, -69.532
1597.6000, -69.848
1597.7000, -70.139
1597.8000, -70.354
1597.9000, -70.478
1598.0000, -70.980
1598.1000, -71.200
1598.2000, -71.689
1598.3000, -71.696
1598.4000, -72.503
1598.5000, -72.327
1598.6000, -72.851
1598.7000, -73.156
1598.8000, -74.034
1598.9000, -73.920
1599.0000, -74.110
1599.1000, -74.766
1599.2000, -75.894
1599.3000, -76.276
1599.4000, -75.795
1599.5000, -77.887
1599.6000, -78.478
1599.7000, -77.702
1599.8000, -78.374
1599.9000, -78.883
1600.0000, -81.221
1600.1000, -80.182
1600.2000, -80.313
1600.3000, -82.489
1600.4000, -81.188
1600.5000, -81.330
1600.6000, -80.273
1600.7000, -80.373
1600.8000, -80.280
1600.9000, -80.388
1601.0000, -77.480
1601.1000, -78.449
1601.2000, -77.404
1601.3000, -79.522
1601.4000, -76.376
1601.5000, -75.985
1601.6000, -76.559
1601.7000, -75.492
1601.8000, -75.921
1601.9000, -74.618
1602.0000, -74.615
1602.1000, -74.200
1602.2000, -73.283
1602.3000, -73.689
1602.4000, -73.145
1602.5000, -72.919
1602.6000, -72.648
1602.7000, -72.389
1602.8000, -71.688
1602.9000, -71.616
1603.0000, -71.789
1603.1000, -71.197
1603.2000, -71.367
1603.3000, -70.874
1603.4000, -71.056
1603.5000, -70.812
1603.6000, -70.483
1603.7000, -70.408
1603.8000, -70.511
1603.9000, -70.084
1604.0000, -70.181
1604.1000, -69.984
1604.2000, -70.013
1604.3000, -69.963
1604.4000, -69.841
1604.5000, -69.669
1604.6000, -69.657
1604.7000, -69.553
1604.8000, -69.470
1604.9000, -69.352
1605.0000, -69.442
1605.1000, -69.356
1605.2000, -69.452
1605.3000, -69.560
1605.4000, -69.341
1605.5000, -69.379
1605.6000, -69.608
1605.7000, -69.530
1605.8000, -69.593
1605.9000, -69.563
1606.0000, -69.621
1606.1000, -69.515
1606.2000, -69.549
1606.3000, -69.719
1606.4000, -69.802
1606.5000, -69.768
1606.6000, -69.942
1606.7000, -69.820
1606.8000, -70.162
1606.9000, -70.337
1607.0000, -69.942
1607.1000, -70.476
1607.2000, -70.500
1607.3000, -70.491
1607.4000, -70.568
1607.5000, -70.865
1607.6000, -71.089
1607.7000, -70.950
1607.8000, -71.252
1607.9000, -71.569
1608.0000, -71.366
1608.1000, -71.889
1608.2000, -72.442
1608.3000, -72.457
1608.4000, -72.397
1608.5000, -72.932
1608.6000, -72.904
1608.7000, -73.527
1608.8000, -74.037
1608.9000, -74.628
1609.0000, -75.162
1609.1000, -74.833
1609.2000, -75.867
1609.3000, -76.118
1609.4000, -76.091
1609.5000, -76.463
1609.6000, -77.760
1609.7000, -77.587
1609.8000, -80.075
1609.9000, -79.602
1610.0000, -79.561
1610.1000, -79.945
1610.2000, -81.271
1610.3000, -83.340
1610.4000, -83.933
1610.5000, -86.116
1610.6000, -83.036
1610.7000, -79.463
1610.8000, -83.124
1610.9000, -79.600
1611.0000, -81.959
1611.1000, -82.300
1611.2000, -79.006
1611.3000, -79.020
1611.4000, -81.393
1611.5000, -78.109
1611.6000, -79.231
1611.7000, -78.240
1611.8000, -77.282
1611.9000, -77.943
1612.0000, -76.856
1612.1000, -76.924
1612.2000, -75.717
1612.3000, -75.935
1612.4000, -75.202
1612.5000, -75.663
1612.6000, -74.673
1612.7000, -74.644
1612.8000, -74.164
1612.9000, -73.451
1613.0000, -73.775
1613.1000, -73.372
1613.2000, -72.910
1613.3000, -72.413
1613.4000, -72.544
1613.5000, -72.346
1613.6000, -72.067
1613.7000, -71.856
1613.8000, -71.952
1613.9000, -71.378
1614.0000, -71.483
1614.1000, -71.151
1614.2000, -71.105
1614.3000, -70.793
1614.4000, -71.173
1614.5000, -70.806
1614.6000, -70.612
1614.7000, -70.980
1614.8000, -70.424
1614.9000, -70.520
1615.0000, -70.172
1615.1000, -70.235
1615.2000, -70.421
1615.3000, -70.206
1615.4000, -70.154
1615.5000, -70.261
1615.6000, -70.430
1615.7000, -70.091
1615.8000, -70.343
1615.9000, -70.300
1616.0000, -70.443
1616.1000, -70.502
1616.2000, -70.388
1616.3000, -70.317
1616.4000, -70.589
1616.5000, -70.940
1616.6000, -70.761
1616.7000, -71.060
1616.8000, -70.484
1616.9000, -70.736
1617.0000, -71.194
1617.1000, -71.203
1617.2000, -71.204
1617.3000, -71.295
1617.4000, -71.317
1617.5000, -71.802
1617.6000, -71.815
1617.7000, -71.599
1617.8000, -71.778
1617.9000, -71.793
1618.0000, -72.028
1618.1000, -72.663
1618.2000, -72.408
1618.3000, -72.512
1618.4000, -72.552
1618.5000, -72.988
1618.6000, -73.411
1618.7000, -73.035
1618.8000, -73.996
1618.9000, -73.648
1619.0000, -74.635
1619.1000, -74.845
1619.2000, -74.639
1619.3000, -75.466
1619.4000, -75.163
1619.5000, -75.564
1619.6000, -75.668
1619.7000, -77.626
1619.8000, -77.842
1619.9000, -78.106
1620.0000, -77.416
