70BCSV 	
// AQ6370B OPTICAL SPECTRUM ANALYZER //                 
25
"CTRWL",1560.000000
"SPAN", 120.000000
"START WL",1500.000000
"STOP WL",1620.000000
"WLFREQ", 0
"REFL",-38.6
"LSCL", 6.0
"RESLN",0.500
"AVG",   1
"SMPLAUTO",      1
"SMPL",       1201
"SMPLINTVL",0.1000
"HIGH1"
"MEAS"
"LSUNT",0
"NMSKH","OFF"
"RESCOR",0
"RESPARM", 9740
"FREQPARM", 9740






"[TRACE DATA]"
1500.0000, -73.491
1500.1000, -73.664
1500.2000, -73.910
1500.3000, -74.208
1500.4000, -74.147
1500.5000, -74.263
1500.6000, -74.536
1500.7000, -74.896
1500.8000, -76.057
1500.9000, -74.513
1501.0000, -74.739
1501.1000, -74.583
1501.2000, -75.728
1501.3000, -75.188
1501.4000, -75.036
1501.5000, -74.962
1501.6000, -74.490
1501.7000, -74.102
1501.8000, -74.485
1501.9000, -73.776
1502.0000, -73.724
1502.1000, -73.128
1502.2000, -72.622
1502.3000, -72.394
1502.4000, -71.955
1502.5000, -71.425
1502.6000, -70.948
1502.7000, -70.471
1502.8000, -69.932
1502.9000, -69.804
1503.0000, -69.322
1503.1000, -68.990
1503.2000, -68.543
1503.3000, -68.196
1503.4000, -67.792
1503.5000, -67.424
1503.6000, -67.170
1503.7000, -66.923
1503.8000, -66.649
1503.9000, -66.341
1504.0000, -66.121
1504.1000, -65.898
1504.2000, -65.613
1504.3000, -65.362
1504.4000, -65.217
1504.5000, -65.083
1504.6000, -64.836
1504.7000, -64.634
1504.8000, -64.530
1504.9000, -64.385
1505.0000, -64.245
1505.1000, -64.133
1505.2000, -63.969
1505.3000, -63.893
1505.4000, -63.817
1505.5000, -63.708
1505.6000, -63.651
1505.7000, -63.587
1505.8000, -63.500
1505.9000, -63.448
1506.0000, -63.410
1506.1000, -63.371
1506.2000, -63.332
1506.3000, -63.323
1506.4000, -63.311
1506.5000, -63.273
1506.6000, -63.273
1506.7000, -63.250
1506.8000, -63.243
1506.9000, -63.249
1507.0000, -63.306
1507.1000, -63.328
1507.2000, -63.382
1507.3000, -63.399
1507.4000, -63.464
1507.5000, -63.581
1507.6000, -63.557
1507.7000, -63.682
1507.8000, -63.839
1507.9000, -63.912
1508.0000, -64.064
1508.1000, -64.206
1508.2000, -64.313
1508.3000, -64.488
1508.4000, -64.625
1508.5000, -64.849
1508.6000, -65.040
1508.7000, -65.306
1508.8000, -65.573
1508.9000, -65.811
1509.0000, -66.072
1509.1000, -66.352
1509.2000, -66.886
1509.3000, -67.033
1509.4000, -67.428
1509.5000, -67.735
1509.6000, -68.213
1509.7000, -68.437
1509.8000, -68.748
1509.9000, -69.106
1510.0000, -69.676
1510.1000, -69.668
1510.2000, -70.135
1510.3000, -70.098
1510.4000, -69.994
1510.5000, -69.973
1510.6000, -69.674
1510.7000, -69.408
1510.8000, -69.107
1510.9000, -68.660
1511.0000, -68.080
1511.1000, -67.873
1511.2000, -67.107
1511.3000, -66.648
1511.4000, -66.196
1511.5000, -65.722
1511.6000, -65.227
1511.7000, -64.800
1511.8000, -64.334
1511.9000, -63.972
1512.0000, -63.593
1512.1000, -63.216
1512.2000, -62.868
1512.3000, -62.538
1512.4000, -62.232
1512.5000, -61.937
1512.6000, -61.626
1512.7000, -61.323
1512.8000, -61.068
1512.9000, -60.799
1513.0000, -60.580
1513.1000, -60.350
1513.2000, -60.145
1513.3000, -59.961
1513.4000, -59.726
1513.5000, -59.580
1513.6000, -59.407
1513.7000, -59.245
1513.8000, -59.096
1513.9000, -58.950
1514.0000, -58.817
1514.1000, -58.719
1514.2000, -58.619
1514.3000, -58.518
1514.4000, -58.472
1514.5000, -58.411
1514.6000, -58.352
1514.7000, -58.332
1514.8000, -58.310
1514.9000, -58.283
1515.0000, -58.298
1515.1000, -58.285
1515.2000, -58.285
1515.3000, -58.309
1515.4000, -58.315
1515.5000, -58.353
1515.6000, -58.394
1515.7000, -58.444
1515.8000, -58.498
1515.9000, -58.579
1516.0000, -58.670
1516.1000, -58.753
1516.2000, -58.875
1516.3000, -58.999
1516.4000, -59.122
1516.5000, -59.277
1516.6000, -59.456
1516.7000, -59.636
1516.8000, -59.838
1516.9000, -60.043
1517.0000, -60.277
1517.1000, -60.506
1517.2000, -60.775
1517.3000, -61.050
1517.4000, -61.348
1517.5000, -61.656
1517.6000, -62.013
1517.7000, -62.352
1517.8000, -62.725
1517.9000, -63.033
1518.0000, -63.393
1518.1000, -63.621
1518.2000, -63.835
1518.3000, -63.924
1518.4000, -64.113
1518.5000, -64.057
1518.6000, -63.945
1518.7000, -63.749
1518.8000, -63.442
1518.9000, -63.022
1519.0000, -62.531
1519.1000, -62.008
1519.2000, -61.378
1519.3000, -60.806
1519.4000, -60.205
1519.5000, -59.619
1519.6000, -59.058
1519.7000, -58.466
1519.8000, -57.876
1519.9000, -57.271
1520.0000, -56.705
1520.1000, -56.115
1520.2000, -55.566
1520.3000, -55.046
1520.4000, -54.532
1520.5000, -54.038
1520.6000, -53.567
1520.7000, -53.089
1520.8000, -52.607
1520.9000, -52.127
1521.0000, -51.673
1521.1000, -51.236
1521.2000, -50.814
1521.3000, -50.399
1521.4000, -50.002
1521.5000, -49.605
1521.6000, -49.224
1521.7000, -48.853
1521.8000, -48.487
1521.9000, -48.140
1522.0000, -47.782
1522.1000, -47.462
1522.2000, -47.150
1522.3000, -46.831
1522.4000, -46.527
1522.5000, -46.228
1522.6000, -45.945
1522.7000, -45.677
1522.8000, -45.416
1522.9000, -45.157
1523.0000, -44.900
1523.1000, -44.650
1523.2000, -44.399
1523.3000, -44.162
1523.4000, -43.924
1523.5000, -43.705
1523.6000, -43.496
1523.7000, -43.290
1523.8000, -43.094
1523.9000, -42.898
1524.0000, -42.715
1524.1000, -42.541
1524.2000, -42.377
1524.3000, -42.223
1524.4000, -42.081
1524.5000, -41.945
1524.6000, -41.829
1524.7000, -41.719
1524.8000, -41.623
1524.9000, -41.544
1525.0000, -41.462
1525.1000, -41.394
1525.2000, -41.334
1525.3000, -41.295
1525.4000, -41.266
1525.5000, -41.229
1525.6000, -41.187
1525.7000, -41.156
1525.8000, -41.120
1525.9000, -41.109
1526.0000, -41.121
1526.1000, -41.121
1526.2000, -41.123
1526.3000, -41.119
1526.4000, -41.096
1526.5000, -41.049
1526.6000, -40.995
1526.7000, -40.915
1526.8000, -40.820
1526.9000, -40.722
1527.0000, -40.612
1527.1000, -40.475
1527.2000, -40.319
1527.3000, -40.129
1527.4000, -39.918
1527.5000, -39.685
1527.6000, -39.433
1527.7000, -39.177
1527.8000, -38.892
1527.9000, -38.608
1528.0000, -38.319
1528.1000, -37.998
1528.2000, -37.652
1528.3000, -37.296
1528.4000, -36.961
1528.5000, -36.604
1528.6000, -36.276
1528.7000, -35.933
1528.8000, -35.590
1528.9000, -35.223
1529.0000, -34.847
1529.1000, -34.480
1529.2000, -34.121
1529.3000, -33.742
1529.4000, -33.397
1529.5000, -33.047
1529.6000, -32.684
1529.7000, -32.336
1529.8000, -31.932
1529.9000, -31.648
1530.0000, -31.366
1530.1000, -31.088
1530.2000, -30.838
1530.3000, -30.605
1530.4000, -30.364
1530.5000, -30.189
1530.6000, -29.996
1530.7000, -29.795
1530.8000, -29.591
1530.9000, -29.429
1531.0000, -29.280
1531.1000, -29.115
1531.2000, -29.022
1531.3000, -28.919
1531.4000, -28.807
1531.5000, -28.749
1531.6000, -28.696
1531.7000, -28.663
1531.8000, -28.640
1531.9000, -28.646
1532.0000, -28.642
1532.1000, -28.680
1532.2000, -28.708
1532.3000, -28.746
1532.4000, -28.804
1532.5000, -28.878
1532.6000, -28.988
1532.7000, -29.107
1532.8000, -29.273
1532.9000, -29.437
1533.0000, -29.631
1533.1000, -29.846
1533.2000, -30.049
1533.3000, -30.296
1533.4000, -30.573
1533.5000, -30.861
1533.6000, -31.157
1533.7000, -31.476
1533.8000, -31.812
1533.9000, -32.180
1534.0000, -32.539
1534.1000, -32.910
1534.2000, -33.310
1534.3000, -33.714
1534.4000, -34.153
1534.5000, -34.610
1534.6000, -35.061
1534.7000, -35.540
1534.8000, -36.039
1534.9000, -36.558
1535.0000, -37.078
1535.1000, -37.624
1535.2000, -38.160
1535.3000, -38.695
1535.4000, -39.252
1535.5000, -39.822
1535.6000, -40.378
1535.7000, -40.947
1535.8000, -41.498
1535.9000, -42.036
1536.0000, -42.602
1536.1000, -43.159
1536.2000, -43.715
1536.3000, -44.286
1536.4000, -44.853
1536.5000, -45.460
1536.6000, -46.072
1536.7000, -46.686
1536.8000, -47.290
1536.9000, -47.882
1537.0000, -48.450
1537.1000, -48.993
1537.2000, -49.529
1537.3000, -50.224
1537.4000, -50.647
1537.5000, -51.237
1537.6000, -51.809
1537.7000, -52.403
1537.8000, -53.023
1537.9000, -53.660
1538.0000, -54.305
1538.1000, -54.954
1538.2000, -55.614
1538.3000, -56.262
1538.4000, -56.901
1538.5000, -57.536
1538.6000, -58.162
1538.7000, -58.744
1538.8000, -59.223
1538.9000, -59.635
1539.0000, -59.920
1539.1000, -60.066
1539.2000, -60.098
1539.3000, -60.027
1539.4000, -59.885
1539.5000, -59.648
1539.6000, -59.399
1539.7000, -59.072
1539.8000, -58.743
1539.9000, -58.347
1540.0000, -57.930
1540.1000, -57.512
1540.2000, -57.092
1540.3000, -56.683
1540.4000, -56.277
1540.5000, -55.876
1540.6000, -55.472
1540.7000, -55.101
1540.8000, -54.748
1540.9000, -54.416
1541.0000, -54.115
1541.1000, -53.785
1541.2000, -53.452
1541.3000, -53.118
1541.4000, -52.786
1541.5000, -52.467
1541.6000, -52.149
1541.7000, -51.853
1541.8000, -51.558
1541.9000, -51.269
1542.0000, -50.996
1542.1000, -50.718
1542.2000, -50.455
1542.3000, -50.194
1542.4000, -49.942
1542.5000, -49.697
1542.6000, -49.449
1542.7000, -49.203
1542.8000, -48.968
1542.9000, -48.753
1543.0000, -48.539
1543.1000, -48.354
1543.2000, -48.156
1543.3000, -47.980
1543.4000, -47.769
1543.5000, -47.589
1543.6000, -47.416
1543.7000, -47.246
1543.8000, -47.063
1543.9000, -46.900
1544.0000, -46.751
1544.1000, -46.616
1544.2000, -46.496
1544.3000, -46.370
1544.4000, -46.249
1544.5000, -46.124
1544.6000, -46.002
1544.7000, -45.860
1544.8000, -45.743
1544.9000, -45.618
1545.0000, -45.509
1545.1000, -45.414
1545.2000, -45.332
1545.3000, -45.255
1545.4000, -45.174
1545.5000, -45.103
1545.6000, -45.030
1545.7000, -44.964
1545.8000, -44.900
1545.9000, -44.841
1546.0000, -44.789
1546.1000, -44.753
1546.2000, -44.732
1546.3000, -44.717
1546.4000, -44.707
1546.5000, -44.697
1546.6000, -44.686
1546.7000, -44.686
1546.8000, -44.702
1546.9000, -44.732
1547.0000, -44.769
1547.1000, -44.820
1547.2000, -44.887
1547.3000, -44.968
1547.4000, -45.049
1547.5000, -45.170
1547.6000, -45.282
1547.7000, -45.400
1547.8000, -45.513
1547.9000, -45.668
1548.0000, -45.823
1548.1000, -45.985
1548.2000, -46.164
1548.3000, -46.333
1548.4000, -46.514
1548.5000, -46.715
1548.6000, -46.934
1548.7000, -47.187
1548.8000, -47.453
1548.9000, -47.743
1549.0000, -48.080
1549.1000, -48.442
1549.2000, -48.830
1549.3000, -49.252
1549.4000, -49.694
1549.5000, -50.159
1549.6000, -50.680
1549.7000, -51.254
1549.8000, -51.886
1549.9000, -52.568
1550.0000, -53.294
1550.1000, -54.061
1550.2000, -54.865
1550.3000, -55.726
1550.4000, -56.682
1550.5000, -57.772
1550.6000, -58.982
1550.7000, -60.224
1550.8000, -61.406
1550.9000, -62.318
1551.0000, -62.734
1551.1000, -62.468
1551.2000, -61.673
1551.3000, -60.605
1551.4000, -59.444
1551.5000, -58.338
1551.6000, -57.332
1551.7000, -56.449
1551.8000, -55.642
1551.9000, -54.931
1552.0000, -54.246
1552.1000, -53.604
1552.2000, -53.002
1552.3000, -52.465
1552.4000, -51.976
1552.5000, -51.534
1552.6000, -51.148
1552.7000, -50.811
1552.8000, -50.494
1552.9000, -50.210
1553.0000, -49.923
1553.1000, -49.668
1553.2000, -49.425
1553.3000, -49.200
1553.4000, -48.996
1553.5000, -48.834
1553.6000, -48.689
1553.7000, -48.562
1553.8000, -48.436
1553.9000, -48.316
1554.0000, -48.191
1554.1000, -48.077
1554.2000, -47.969
1554.3000, -47.877
1554.4000, -47.815
1554.5000, -47.765
1554.6000, -47.698
1554.7000, -47.692
1554.8000, -47.677
1554.9000, -47.689
1555.0000, -47.704
1555.1000, -47.735
1555.2000, -47.767
1555.3000, -47.800
1555.4000, -47.846
1555.5000, -47.907
1555.6000, -47.994
1555.7000, -48.074
1555.8000, -48.154
1555.9000, -48.240
1556.0000, -48.346
1556.1000, -48.478
1556.2000, -48.629
1556.3000, -48.793
1556.4000, -48.942
1556.5000, -49.098
1556.6000, -49.273
1556.7000, -49.465
1556.8000, -49.679
1556.9000, -49.913
1557.0000, -50.176
1557.1000, -50.457
1557.2000, -50.760
1557.3000, -51.069
1557.4000, -51.402
1557.5000, -51.750
1557.6000, -52.111
1557.7000, -52.461
1557.8000, -52.804
1557.9000, -53.152
1558.0000, -53.527
1558.1000, -53.924
1558.2000, -54.354
1558.3000, -54.794
1558.4000, -55.254
1558.5000, -55.692
1558.6000, -56.102
1558.7000, -56.486
1558.8000, -56.802
1558.9000, -57.105
1559.0000, -57.368
1559.1000, -57.606
1559.2000, -57.805
1559.3000, -57.945
1559.4000, -57.989
1559.5000, -57.967
1559.6000, -57.839
1559.7000, -57.666
1559.8000, -57.454
1559.9000, -57.241
1560.0000, -56.974
1560.1000, -56.661
1560.2000, -56.357
1560.3000, -56.028
1560.4000, -55.703
1560.5000, -55.390
1560.6000, -55.067
1560.7000, -54.779
1560.8000, -54.527
1560.9000, -54.283
1561.0000, -54.073
1561.1000, -53.863
1561.2000, -53.671
1561.3000, -53.501
1561.4000, -53.348
1561.5000, -53.204
1561.6000, -53.077
1561.7000, -52.980
1561.8000, -52.901
1561.9000, -52.844
1562.0000, -52.806
1562.1000, -52.785
1562.2000, -52.780
1562.3000, -52.786
1562.4000, -52.792
1562.5000, -52.806
1562.6000, -52.822
1562.7000, -52.848
1562.8000, -52.879
1562.9000, -52.911
1563.0000, -52.962
1563.1000, -53.000
1563.2000, -53.068
1563.3000, -53.121
1563.4000, -53.193
1563.5000, -53.271
1563.6000, -53.372
1563.7000, -53.489
1563.8000, -53.619
1563.9000, -53.783
1564.0000, -53.936
1564.1000, -54.112
1564.2000, -54.291
1564.3000, -54.496
1564.4000, -54.703
1564.5000, -54.925
1564.6000, -55.145
1564.7000, -55.363
1564.8000, -55.564
1564.9000, -55.773
1565.0000, -56.019
1565.1000, -56.271
1565.2000, -56.564
1565.3000, -56.879
1565.4000, -57.236
1565.5000, -57.649
1565.6000, -58.047
1565.7000, -58.495
1565.8000, -58.957
1565.9000, -59.471
1566.0000, -59.934
1566.1000, -60.486
1566.2000, -61.056
1566.3000, -61.622
1566.4000, -62.293
1566.5000, -63.027
1566.6000, -63.826
1566.7000, -64.745
1566.8000, -65.730
1566.9000, -66.833
1567.0000, -67.914
1567.1000, -69.007
1567.2000, -70.306
1567.3000, -71.276
1567.4000, -71.581
1567.5000, -72.104
1567.6000, -72.015
1567.7000, -71.513
1567.8000, -70.873
1567.9000, -70.058
1568.0000, -69.013
1568.1000, -68.370
1568.2000, -67.686
1568.3000, -67.098
1568.4000, -66.534
1568.5000, -65.786
1568.6000, -65.214
1568.7000, -64.692
1568.8000, -64.240
1568.9000, -63.705
1569.0000, -63.325
1569.1000, -62.947
1569.2000, -62.690
1569.3000, -62.412
1569.4000, -62.132
1569.5000, -61.858
1569.6000, -61.651
1569.7000, -61.412
1569.8000, -61.191
1569.9000, -60.998
1570.0000, -60.840
1570.1000, -60.678
1570.2000, -60.547
1570.3000, -60.412
1570.4000, -60.312
1570.5000, -60.212
1570.6000, -60.108
1570.7000, -60.027
1570.8000, -59.975
1570.9000, -59.909
1571.0000, -59.906
1571.1000, -59.885
1571.2000, -59.929
1571.3000, -59.929
1571.4000, -59.932
1571.5000, -59.994
1571.6000, -60.051
1571.7000, -60.109
1571.8000, -60.188
1571.9000, -60.280
1572.0000, -60.371
1572.1000, -60.468
1572.2000, -60.585
1572.3000, -60.700
1572.4000, -60.859
1572.5000, -61.021
1572.6000, -61.191
1572.7000, -61.301
1572.8000, -61.507
1572.9000, -61.723
1573.0000, -61.880
1573.1000, -62.099
1573.2000, -62.231
1573.3000, -62.517
1573.4000, -62.686
1573.5000, -62.946
1573.6000, -63.177
1573.7000, -63.438
1573.8000, -63.738
1573.9000, -63.909
1574.0000, -64.176
1574.1000, -64.501
1574.2000, -64.746
1574.3000, -65.050
1574.4000, -65.441
1574.5000, -65.830
1574.6000, -66.086
1574.7000, -66.553
1574.8000, -66.945
1574.9000, -67.270
1575.0000, -67.816
1575.1000, -68.111
1575.2000, -68.555
1575.3000, -69.068
1575.4000, -69.509
1575.5000, -69.669
1575.6000, -70.131
1575.7000, -70.375
1575.8000, -70.566
1575.9000, -70.906
1576.0000, -70.810
1576.1000, -70.866
1576.2000, -70.340
1576.3000, -70.181
1576.4000, -69.757
1576.5000, -69.480
1576.6000, -69.039
1576.7000, -68.676
1576.8000, -68.296
1576.9000, -67.919
1577.0000, -67.493
1577.1000, -67.066
1577.2000, -66.708
1577.3000, -66.412
1577.4000, -66.099
1577.5000, -65.682
1577.6000, -65.411
1577.7000, -65.062
1577.8000, -64.754
1577.9000, -64.441
1578.0000, -64.154
1578.1000, -63.839
1578.2000, -63.637
1578.3000, -63.397
1578.4000, -63.209
1578.5000, -62.998
1578.6000, -62.752
1578.7000, -62.586
1578.8000, -62.416
1578.9000, -62.249
1579.0000, -62.038
1579.1000, -61.904
1579.2000, -61.703
1579.3000, -61.529
1579.4000, -61.375
1579.5000, -61.247
1579.6000, -61.108
1579.7000, -60.958
1579.8000, -60.883
1579.9000, -60.730
1580.0000, -60.653
1580.1000, -60.586
1580.2000, -60.481
1580.3000, -60.403
1580.4000, -60.320
1580.5000, -60.233
1580.6000, -60.182
1580.7000, -60.095
1580.8000, -60.041
1580.9000, -59.988
1581.0000, -59.948
1581.1000, -59.894
1581.2000, -59.844
1581.3000, -59.830
1581.4000, -59.788
1581.5000, -59.744
1581.6000, -59.752
1581.7000, -59.740
1581.8000, -59.729
1581.9000, -59.740
1582.0000, -59.745
1582.1000, -59.749
1582.2000, -59.786
1582.3000, -59.798
1582.4000, -59.849
1582.5000, -59.842
1582.6000, -59.866
1582.7000, -59.910
1582.8000, -59.968
1582.9000, -60.017
1583.0000, -60.049
1583.1000, -60.143
1583.2000, -60.202
1583.3000, -60.276
1583.4000, -60.384
1583.5000, -60.461
1583.6000, -60.564
1583.7000, -60.657
1583.8000, -60.789
1583.9000, -60.930
1584.0000, -61.030
1584.1000, -61.164
1584.2000, -61.309
1584.3000, -61.385
1584.4000, -61.543
1584.5000, -61.694
1584.6000, -61.822
1584.7000, -61.971
1584.8000, -62.119
1584.9000, -62.306
1585.0000, -62.472
1585.1000, -62.702
1585.2000, -62.851
1585.3000, -63.035
1585.4000, -63.200
1585.5000, -63.412
1585.6000, -63.630
1585.7000, -63.844
1585.8000, -64.072
1585.9000, -64.261
1586.0000, -64.577
1586.1000, -64.760
1586.2000, -65.187
1586.3000, -65.356
1586.4000, -65.657
1586.5000, -66.021
1586.6000, -66.303
1586.7000, -66.652
1586.8000, -66.910
1586.9000, -67.268
1587.0000, -67.629
1587.1000, -68.037
1587.2000, -68.410
1587.3000, -68.817
1587.4000, -69.116
1587.5000, -69.563
1587.6000, -69.890
1587.7000, -70.118
1587.8000, -70.702
1587.9000, -71.180
1588.0000, -70.993
1588.1000, -71.252
1588.2000, -71.395
1588.3000, -71.367
1588.4000, -71.642
1588.5000, -71.521
1588.6000, -71.621
1588.7000, -71.450
1588.8000, -71.180
1588.9000, -70.846
1589.0000, -70.606
1589.1000, -71.091
1589.2000, -70.397
1589.3000, -69.955
1589.4000, -69.732
1589.5000, -69.343
1589.6000, -68.956
1589.7000, -68.899
1589.8000, -68.478
1589.9000, -68.344
1590.0000, -67.827
1590.1000, -67.852
1590.2000, -67.408
1590.3000, -67.175
1590.4000, -66.888
1590.5000, -66.681
1590.6000, -66.392
1590.7000, -66.402
1590.8000, -66.026
1590.9000, -65.897
1591.0000, -65.747
1591.1000, -65.516
1591.2000, -65.444
1591.3000, -65.235
1591.4000, -65.109
1591.5000, -65.002
1591.6000, -64.812
1591.7000, -64.672
1591.8000, -64.657
1591.9000, -64.565
1592.0000, -64.388
1592.1000, -64.330
1592.2000, -64.263
1592.3000, -64.184
1592.4000, -64.107
1592.5000, -64.079
1592.6000, -64.062
1592.7000, -63.939
1592.8000, -64.001
1592.9000, -63.945
1593.0000, -63.926
1593.1000, -63.860
1593.2000, -63.875
1593.3000, -63.873
1593.4000, -63.814
1593.5000, -63.839
1593.6000, -63.892
1593.7000, -63.796
1593.8000, -63.898
1593.9000, -63.936
1594.0000, -63.849
1594.1000, -63.985
1594.2000, -64.038
1594.3000, -64.071
1594.4000, -64.115
1594.5000, -64.255
1594.6000, -64.280
1594.7000, -64.317
1594.8000, -64.417
1594.9000, -64.575
1595.0000, -64.604
1595.1000, -64.718
1595.2000, -64.743
1595.3000, -64.930
1595.4000, -64.974
1595.5000, -65.079
1595.6000, -65.282
1595.7000, -65.381
1595.8000, -65.583
1595.9000, -65.635
1596.0000, -65.773
1596.1000, -65.943
1596.2000, -66.188
1596.3000, -66.284
1596.4000, -66.414
1596.5000, -66.569
1596.6000, -66.873
1596.7000, -67.080
1596.8000, -67.319
1596.9000, -67.393
1597.0000, -67.720
1597.1000, -67.838
1597.2000, -67.964
1597.3000, -68.434
1597.4000, -68.662
1597.5000, -68.834
1597.6000, -69.137
1597.7000, -69.543
1597.8000, -69.575
1597.9000, -70.343
1598.0000, -70.673
1598.1000, -70.885
1598.2000, -71.296
1598.3000, -71.713
1598.4000, -71.942
1598.5000, -72.717
1598.6000, -73.050
1598.7000, -73.805
1598.8000, -73.556
1598.9000, -75.064
1599.0000, -75.239
1599.1000, -75.890
1599.2000, -76.685
1599.3000, -78.446
1599.4000, -79.677
1599.5000, -79.778
1599.6000, -79.155
1599.7000, -81.378
1599.8000, -80.740
1599.9000, -85.177
1600.0000,-210.000
1600.1000, -80.829
1600.2000, -83.131
1600.3000,-210.000
1600.4000, -87.041
1600.5000, -79.753
1600.6000, -98.660
1600.7000, -79.174
1600.8000, -79.464
1600.9000, -79.207
1601.0000, -77.440
1601.1000, -76.840
1601.2000, -76.066
1601.3000, -75.665
1601.4000, -74.356
1601.5000, -74.985
1601.6000, -74.263
1601.7000, -73.578
1601.8000, -73.492
1601.9000, -72.856
1602.0000, -72.808
1602.1000, -72.784
1602.2000, -71.864
1602.3000, -71.996
1602.4000, -71.663
1602.5000, -71.484
1602.6000, -70.987
1602.7000, -70.966
1602.8000, -70.581
1602.9000, -70.390
1603.0000, -70.278
1603.1000, -69.964
1603.2000, -69.876
1603.3000, -69.867
1603.4000, -69.651
1603.5000, -69.600
1603.6000, -69.432
1603.7000, -69.199
1603.8000, -68.946
1603.9000, -69.075
1604.0000, -69.170
1604.1000, -68.931
1604.2000, -68.959
1604.3000, -68.762
1604.4000, -68.863
1604.5000, -68.933
1604.6000, -68.746
1604.7000, -68.865
1604.8000, -68.736
1604.9000, -68.592
1605.0000, -68.755
1605.1000, -68.690
1605.2000, -68.611
1605.3000, -68.932
1605.4000, -68.840
1605.5000, -68.766
1605.6000, -68.867
1605.7000, -68.859
1605.8000, -69.047
1605.9000, -68.932
1606.0000, -69.150
1606.1000, -68.992
1606.2000, -69.469
1606.3000, -69.164
1606.4000, -69.523
1606.5000, -69.506
1606.6000, -69.728
1606.7000, -69.938
1606.8000, -69.828
1606.9000, -69.961
1607.0000, -70.022
1607.1000, -70.148
1607.2000, -70.831
1607.3000, -70.702
1607.4000, -70.716
1607.5000, -71.217
1607.6000, -71.048
1607.7000, -71.366
1607.8000, -72.247
1607.9000, -71.988
1608.0000, -72.138
1608.1000, -72.282
1608.2000, -73.051
1608.3000, -72.689
1608.4000, -73.193
1608.5000, -73.600
1608.6000, -74.487
1608.7000, -74.378
1608.8000, -74.893
1608.9000, -75.174
1609.0000, -76.302
1609.1000, -76.857
1609.2000, -76.661
1609.3000, -77.946
1609.4000, -78.636
1609.5000, -80.247
1609.6000, -78.624
1609.7000, -81.090
1609.8000, -82.236
1609.9000, -79.077
1610.0000, -78.342
1610.1000,-210.000
1610.2000, -82.199
1610.3000, -80.204
1610.4000, -82.239
1610.5000, -82.465
1610.6000, -88.050
1610.7000, -81.199
1610.8000, -79.775
1610.9000, -78.637
1611.0000, -78.509
1611.1000, -80.282
1611.2000, -78.411
1611.3000, -77.302
1611.4000, -77.637
1611.5000, -77.488
1611.6000, -76.968
1611.7000, -76.522
1611.8000, -76.078
1611.9000, -74.928
1612.0000, -75.073
1612.1000, -75.127
1612.2000, -74.724
1612.3000, -74.712
1612.4000, -74.303
1612.5000, -74.012
1612.6000, -74.132
1612.7000, -73.365
1612.8000, -72.834
1612.9000, -72.957
1613.0000, -72.856
1613.1000, -72.529
1613.2000, -72.175
1613.3000, -72.476
1613.4000, -71.874
1613.5000, -71.635
1613.6000, -71.374
1613.7000, -71.874
1613.8000, -71.362
1613.9000, -71.617
1614.0000, -71.056
1614.1000, -71.078
1614.2000, -70.920
1614.3000, -71.012
1614.4000, -70.739
1614.5000, -71.069
1614.6000, -70.481
1614.7000, -70.620
1614.8000, -70.636
1614.9000, -70.855
1615.0000, -70.668
1615.1000, -70.405
1615.2000, -70.818
1615.3000, -70.852
1615.4000, -70.533
1615.5000, -70.761
1615.6000, -70.778
1615.7000, -70.911
1615.8000, -70.997
1615.9000, -71.299
1616.0000, -71.197
1616.1000, -71.200
1616.2000, -71.452
1616.3000, -71.284
1616.4000, -71.700
1616.5000, -71.658
1616.6000, -71.407
1616.7000, -72.072
1616.8000, -72.192
1616.9000, -72.101
1617.0000, -72.174
1617.1000, -72.451
1617.2000, -72.422
1617.3000, -72.991
1617.4000, -72.250
1617.5000, -73.573
1617.6000, -72.615
1617.7000, -73.698
1617.8000, -73.778
1617.9000, -74.388
1618.0000, -73.570
1618.1000, -74.435
1618.2000, -74.467
1618.3000, -74.372
1618.4000, -75.051
1618.5000, -75.042
1618.6000, -75.732
1618.7000, -75.842
1618.8000, -77.659
1618.9000, -76.183
1619.0000, -77.255
1619.1000, -77.518
1619.2000, -79.176
1619.3000, -79.497
1619.4000, -80.942
1619.5000, -77.495
1619.6000, -81.545
1619.7000, -80.655
1619.8000, -81.507
1619.9000, -79.857
1620.0000, -78.463
