70BCSV 	
// AQ6370B OPTICAL SPECTRUM ANALYZER //                 
25
"CTRWL",1560.000000
"SPAN", 120.000000
"START WL",1500.000000
"STOP WL",1620.000000
"WLFREQ", 0
"REFL",-38.6
"LSCL", 6.0
"RESLN",0.500
"AVG",   1
"SMPLAUTO",      1
"SMPL",       1201
"SMPLINTVL",0.1000
"HIGH1"
"MEAS"
"LSUNT",0
"NMSKH","OFF"
"RESCOR",0
"RESPARM", 9740
"FREQPARM", 9740






"[TRACE DATA]"
1500.0000, -69.986
1500.1000, -69.852
1500.2000, -69.734
1500.3000, -69.625
1500.4000, -69.305
1500.5000, -69.229
1500.6000, -69.230
1500.7000, -68.944
1500.8000, -68.928
1500.9000, -68.761
1501.0000, -68.509
1501.1000, -68.656
1501.2000, -68.403
1501.3000, -68.485
1501.4000, -68.401
1501.5000, -68.229
1501.6000, -68.109
1501.7000, -68.253
1501.8000, -68.269
1501.9000, -68.200
1502.0000, -68.246
1502.1000, -68.234
1502.2000, -68.270
1502.3000, -68.431
1502.4000, -68.482
1502.5000, -68.619
1502.6000, -68.731
1502.7000, -69.044
1502.8000, -69.224
1502.9000, -69.268
1503.0000, -69.489
1503.1000, -69.708
1503.2000, -69.918
1503.3000, -70.494
1503.4000, -70.842
1503.5000, -70.872
1503.6000, -71.606
1503.7000, -72.164
1503.8000, -72.293
1503.9000, -73.159
1504.0000, -73.350
1504.1000, -74.070
1504.2000, -74.684
1504.3000, -75.338
1504.4000, -76.201
1504.5000, -77.234
1504.6000, -79.751
1504.7000, -78.633
1504.8000, -79.489
1504.9000, -84.011
1505.0000, -81.737
1505.1000, -80.401
1505.2000, -80.243
1505.3000, -80.392
1505.4000, -80.934
1505.5000, -77.956
1505.6000, -77.162
1505.7000, -77.187
1505.8000, -76.322
1505.9000, -75.082
1506.0000, -74.526
1506.1000, -73.344
1506.2000, -72.303
1506.3000, -72.285
1506.4000, -71.557
1506.5000, -70.730
1506.6000, -70.300
1506.7000, -70.044
1506.8000, -69.393
1506.9000, -68.945
1507.0000, -68.454
1507.1000, -68.212
1507.2000, -67.733
1507.3000, -67.350
1507.4000, -67.087
1507.5000, -66.641
1507.6000, -66.342
1507.7000, -66.100
1507.8000, -65.746
1507.9000, -65.552
1508.0000, -65.279
1508.1000, -65.051
1508.2000, -64.752
1508.3000, -64.553
1508.4000, -64.442
1508.5000, -64.159
1508.6000, -63.929
1508.7000, -63.776
1508.8000, -63.647
1508.9000, -63.510
1509.0000, -63.386
1509.1000, -63.258
1509.2000, -63.153
1509.3000, -63.099
1509.4000, -63.058
1509.5000, -63.028
1509.6000, -62.946
1509.7000, -62.901
1509.8000, -62.939
1509.9000, -62.959
1510.0000, -62.982
1510.1000, -63.020
1510.2000, -63.076
1510.3000, -63.152
1510.4000, -63.278
1510.5000, -63.361
1510.6000, -63.480
1510.7000, -63.603
1510.8000, -63.759
1510.9000, -63.967
1511.0000, -64.179
1511.1000, -64.432
1511.2000, -64.647
1511.3000, -64.985
1511.4000, -65.210
1511.5000, -65.609
1511.6000, -65.918
1511.7000, -66.332
1511.8000, -66.685
1511.9000, -67.152
1512.0000, -67.568
1512.1000, -68.165
1512.2000, -68.733
1512.3000, -69.117
1512.4000, -69.968
1512.5000, -70.491
1512.6000, -71.180
1512.7000, -71.898
1512.8000, -73.055
1512.9000, -73.487
1513.0000, -74.311
1513.1000, -74.054
1513.2000, -73.946
1513.3000, -74.350
1513.4000, -73.494
1513.5000, -72.892
1513.6000, -72.387
1513.7000, -71.173
1513.8000, -70.533
1513.9000, -69.541
1514.0000, -68.833
1514.1000, -67.950
1514.2000, -67.430
1514.3000, -66.604
1514.4000, -66.030
1514.5000, -65.452
1514.6000, -64.953
1514.7000, -64.401
1514.8000, -63.958
1514.9000, -63.543
1515.0000, -63.124
1515.1000, -62.717
1515.2000, -62.373
1515.3000, -61.978
1515.4000, -61.651
1515.5000, -61.348
1515.6000, -61.022
1515.7000, -60.717
1515.8000, -60.434
1515.9000, -60.175
1516.0000, -59.904
1516.1000, -59.686
1516.2000, -59.478
1516.3000, -59.233
1516.4000, -59.044
1516.5000, -58.844
1516.6000, -58.672
1516.7000, -58.519
1516.8000, -58.370
1516.9000, -58.215
1517.0000, -58.085
1517.1000, -57.969
1517.2000, -57.843
1517.3000, -57.741
1517.4000, -57.653
1517.5000, -57.579
1517.6000, -57.500
1517.7000, -57.455
1517.8000, -57.412
1517.9000, -57.394
1518.0000, -57.387
1518.1000, -57.391
1518.2000, -57.406
1518.3000, -57.407
1518.4000, -57.431
1518.5000, -57.461
1518.6000, -57.494
1518.7000, -57.562
1518.8000, -57.623
1518.9000, -57.710
1519.0000, -57.813
1519.1000, -57.922
1519.2000, -58.039
1519.3000, -58.159
1519.4000, -58.279
1519.5000, -58.426
1519.6000, -58.568
1519.7000, -58.755
1519.8000, -58.960
1519.9000, -59.220
1520.0000, -59.467
1520.1000, -59.743
1520.2000, -60.002
1520.3000, -60.275
1520.4000, -60.463
1520.5000, -60.666
1520.6000, -60.814
1520.7000, -60.967
1520.8000, -61.086
1520.9000, -61.160
1521.0000, -61.093
1521.1000, -60.873
1521.2000, -60.561
1521.3000, -60.170
1521.4000, -59.647
1521.5000, -59.050
1521.6000, -58.428
1521.7000, -57.735
1521.8000, -57.005
1521.9000, -56.315
1522.0000, -55.608
1522.1000, -54.921
1522.2000, -54.232
1522.3000, -53.570
1522.4000, -52.902
1522.5000, -52.259
1522.6000, -51.662
1522.7000, -51.088
1522.8000, -50.532
1522.9000, -50.001
1523.0000, -49.478
1523.1000, -48.965
1523.2000, -48.451
1523.3000, -47.938
1523.4000, -47.458
1523.5000, -46.994
1523.6000, -46.533
1523.7000, -46.093
1523.8000, -45.661
1523.9000, -45.239
1524.0000, -44.834
1524.1000, -44.430
1524.2000, -44.046
1524.3000, -43.663
1524.4000, -43.297
1524.5000, -42.948
1524.6000, -42.605
1524.7000, -42.270
1524.8000, -41.953
1524.9000, -41.646
1525.0000, -41.343
1525.1000, -41.055
1525.2000, -40.779
1525.3000, -40.537
1525.4000, -40.303
1525.5000, -40.078
1525.6000, -39.849
1525.7000, -39.625
1525.8000, -39.401
1525.9000, -39.198
1526.0000, -39.030
1526.1000, -38.868
1526.2000, -38.737
1526.3000, -38.637
1526.4000, -38.524
1526.5000, -38.420
1526.6000, -38.311
1526.7000, -38.209
1526.8000, -38.115
1526.9000, -38.046
1527.0000, -37.973
1527.1000, -37.906
1527.2000, -37.878
1527.3000, -37.856
1527.4000, -37.839
1527.5000, -37.840
1527.6000, -37.833
1527.7000, -37.828
1527.8000, -37.810
1527.9000, -37.805
1528.0000, -37.807
1528.1000, -37.833
1528.2000, -37.866
1528.3000, -37.946
1528.4000, -38.008
1528.5000, -38.137
1528.6000, -38.304
1528.7000, -38.484
1528.8000, -38.691
1528.9000, -38.905
1529.0000, -39.132
1529.1000, -39.363
1529.2000, -39.632
1529.3000, -39.956
1529.4000, -40.331
1529.5000, -40.730
1529.6000, -41.161
1529.7000, -41.642
1529.8000, -42.112
1529.9000, -42.613
1530.0000, -43.125
1530.1000, -43.673
1530.2000, -44.247
1530.3000, -44.849
1530.4000, -45.477
1530.5000, -46.081
1530.6000, -46.605
1530.7000, -46.933
1530.8000, -47.061
1530.9000, -46.969
1531.0000, -46.655
1531.1000, -46.180
1531.2000, -45.602
1531.3000, -45.002
1531.4000, -44.366
1531.5000, -43.761
1531.6000, -43.132
1531.7000, -42.592
1531.8000, -42.098
1531.9000, -41.643
1532.0000, -41.216
1532.1000, -40.822
1532.2000, -40.439
1532.3000, -40.077
1532.4000, -39.729
1532.5000, -39.440
1532.6000, -39.149
1532.7000, -38.918
1532.8000, -38.725
1532.9000, -38.561
1533.0000, -38.410
1533.1000, -38.277
1533.2000, -38.180
1533.3000, -38.129
1533.4000, -38.116
1533.5000, -38.149
1533.6000, -38.188
1533.7000, -38.254
1533.8000, -38.324
1533.9000, -38.404
1534.0000, -38.459
1534.1000, -38.544
1534.2000, -38.651
1534.3000, -38.791
1534.4000, -38.953
1534.5000, -39.124
1534.6000, -39.303
1534.7000, -39.497
1534.8000, -39.712
1534.9000, -39.951
1535.0000, -40.190
1535.1000, -40.447
1535.2000, -40.692
1535.3000, -40.933
1535.4000, -41.201
1535.5000, -41.463
1535.6000, -41.689
1535.7000, -41.924
1535.8000, -42.156
1535.9000, -42.378
1536.0000, -42.584
1536.1000, -42.792
1536.2000, -42.967
1536.3000, -43.172
1536.4000, -43.360
1536.5000, -43.534
1536.6000, -43.727
1536.7000, -43.900
1536.8000, -44.098
1536.9000, -44.267
1537.0000, -44.415
1537.1000, -44.532
1537.2000, -44.632
1537.3000, -44.709
1537.4000, -44.807
1537.5000, -44.868
1537.6000, -44.952
1537.7000, -45.038
1537.8000, -45.084
1537.9000, -45.159
1538.0000, -45.227
1538.1000, -45.296
1538.2000, -45.357
1538.3000, -45.414
1538.4000, -45.488
1538.5000, -45.546
1538.6000, -45.605
1538.7000, -45.660
1538.8000, -45.718
1538.9000, -45.782
1539.0000, -45.847
1539.1000, -45.907
1539.2000, -45.970
1539.3000, -46.020
1539.4000, -46.070
1539.5000, -46.135
1539.6000, -46.211
1539.7000, -46.311
1539.8000, -46.415
1539.9000, -46.524
1540.0000, -46.636
1540.1000, -46.744
1540.2000, -46.869
1540.3000, -46.999
1540.4000, -47.136
1540.5000, -47.292
1540.6000, -47.469
1540.7000, -47.640
1540.8000, -47.833
1540.9000, -48.037
1541.0000, -48.237
1541.1000, -48.451
1541.2000, -48.660
1541.3000, -48.898
1541.4000, -49.141
1541.5000, -49.413
1541.6000, -49.716
1541.7000, -50.037
1541.8000, -50.365
1541.9000, -50.699
1542.0000, -51.032
1542.1000, -51.377
1542.2000, -51.692
1542.3000, -52.028
1542.4000, -52.356
1542.5000, -52.657
1542.6000, -52.927
1542.7000, -53.136
1542.8000, -53.279
1542.9000, -53.379
1543.0000, -53.412
1543.1000, -53.379
1543.2000, -53.308
1543.3000, -53.177
1543.4000, -52.986
1543.5000, -52.740
1543.6000, -52.450
1543.7000, -52.124
1543.8000, -51.782
1543.9000, -51.403
1544.0000, -51.023
1544.1000, -50.643
1544.2000, -50.260
1544.3000, -49.887
1544.4000, -49.537
1544.5000, -49.202
1544.6000, -48.860
1544.7000, -48.521
1544.8000, -48.183
1544.9000, -47.847
1545.0000, -47.519
1545.1000, -47.196
1545.2000, -46.894
1545.3000, -46.610
1545.4000, -46.320
1545.5000, -46.040
1545.6000, -45.773
1545.7000, -45.505
1545.8000, -45.263
1545.9000, -45.006
1546.0000, -44.772
1546.1000, -44.543
1546.2000, -44.337
1546.3000, -44.138
1546.4000, -43.954
1546.5000, -43.754
1546.6000, -43.572
1546.7000, -43.391
1546.8000, -43.220
1546.9000, -43.089
1547.0000, -42.964
1547.1000, -42.839
1547.2000, -42.714
1547.3000, -42.590
1547.4000, -42.498
1547.5000, -42.409
1547.6000, -42.333
1547.7000, -42.264
1547.8000, -42.211
1547.9000, -42.168
1548.0000, -42.137
1548.1000, -42.112
1548.2000, -42.089
1548.3000, -42.065
1548.4000, -42.040
1548.5000, -42.030
1548.6000, -42.024
1548.7000, -42.044
1548.8000, -42.065
1548.9000, -42.091
1549.0000, -42.127
1549.1000, -42.192
1549.2000, -42.274
1549.3000, -42.360
1549.4000, -42.459
1549.5000, -42.566
1549.6000, -42.695
1549.7000, -42.837
1549.8000, -42.993
1549.9000, -43.170
1550.0000, -43.368
1550.1000, -43.560
1550.2000, -43.759
1550.3000, -43.960
1550.4000, -44.180
1550.5000, -44.422
1550.6000, -44.692
1550.7000, -44.975
1550.8000, -45.288
1550.9000, -45.616
1551.0000, -45.968
1551.1000, -46.320
1551.2000, -46.685
1551.3000, -47.090
1551.4000, -47.507
1551.5000, -47.939
1551.6000, -48.376
1551.7000, -48.800
1551.8000, -49.218
1551.9000, -49.654
1552.0000, -50.186
1552.1000, -50.555
1552.2000, -51.004
1552.3000, -51.408
1552.4000, -51.751
1552.5000, -52.018
1552.6000, -52.200
1552.7000, -52.304
1552.8000, -52.324
1552.9000, -52.263
1553.0000, -52.116
1553.1000, -51.884
1553.2000, -51.574
1553.3000, -51.210
1553.4000, -50.814
1553.5000, -50.439
1553.6000, -50.061
1553.7000, -49.698
1553.8000, -49.336
1553.9000, -48.981
1554.0000, -48.624
1554.1000, -48.271
1554.2000, -47.897
1554.3000, -47.530
1554.4000, -47.272
1554.5000, -46.982
1554.6000, -46.705
1554.7000, -46.455
1554.8000, -46.214
1554.9000, -45.991
1555.0000, -45.777
1555.1000, -45.567
1555.2000, -45.378
1555.3000, -45.193
1555.4000, -45.026
1555.5000, -44.877
1555.6000, -44.722
1555.7000, -44.596
1555.8000, -44.464
1555.9000, -44.339
1556.0000, -44.221
1556.1000, -44.119
1556.2000, -44.029
1556.3000, -43.953
1556.4000, -43.875
1556.5000, -43.808
1556.6000, -43.739
1556.7000, -43.689
1556.8000, -43.651
1556.9000, -43.626
1557.0000, -43.616
1557.1000, -43.625
1557.2000, -43.624
1557.3000, -43.638
1557.4000, -43.665
1557.5000, -43.699
1557.6000, -43.747
1557.7000, -43.797
1557.8000, -43.855
1557.9000, -43.919
1558.0000, -43.989
1558.1000, -44.064
1558.2000, -44.153
1558.3000, -44.252
1558.4000, -44.366
1558.5000, -44.493
1558.6000, -44.616
1558.7000, -44.737
1558.8000, -44.875
1558.9000, -45.012
1559.0000, -45.166
1559.1000, -45.341
1559.2000, -45.531
1559.3000, -45.733
1559.4000, -45.936
1559.5000, -46.147
1559.6000, -46.371
1559.7000, -46.592
1559.8000, -46.847
1559.9000, -47.111
1560.0000, -47.378
1560.1000, -47.655
1560.2000, -47.928
1560.3000, -48.202
1560.4000, -48.485
1560.5000, -48.768
1560.6000, -49.053
1560.7000, -49.344
1560.8000, -49.623
1560.9000, -49.903
1561.0000, -50.150
1561.1000, -50.417
1561.2000, -50.664
1561.3000, -50.914
1561.4000, -51.152
1561.5000, -51.370
1561.6000, -51.548
1561.7000, -51.703
1561.8000, -51.820
1561.9000, -51.901
1562.0000, -51.963
1562.1000, -52.004
1562.2000, -52.032
1562.3000, -52.053
1562.4000, -52.050
1562.5000, -52.034
1562.6000, -52.021
1562.7000, -52.007
1562.8000, -51.987
1562.9000, -51.956
1563.0000, -51.909
1563.1000, -51.877
1563.2000, -51.820
1563.3000, -51.767
1563.4000, -51.698
1563.5000, -51.619
1563.6000, -51.533
1563.7000, -51.441
1563.8000, -51.365
1563.9000, -51.282
1564.0000, -51.212
1564.1000, -51.148
1564.2000, -51.085
1564.3000, -51.036
1564.4000, -51.001
1564.5000, -50.965
1564.6000, -50.940
1564.7000, -50.918
1564.8000, -50.889
1564.9000, -50.850
1565.0000, -50.813
1565.1000, -50.779
1565.2000, -50.731
1565.3000, -50.692
1565.4000, -50.648
1565.5000, -50.624
1565.6000, -50.612
1565.7000, -50.603
1565.8000, -50.601
1565.9000, -50.611
1566.0000, -50.628
1566.1000, -50.652
1566.2000, -50.663
1566.3000, -50.683
1566.4000, -50.709
1566.5000, -50.736
1566.6000, -50.782
1566.7000, -50.840
1566.8000, -50.907
1566.9000, -50.995
1567.0000, -51.085
1567.1000, -51.194
1567.2000, -51.311
1567.3000, -51.434
1567.4000, -51.571
1567.5000, -51.712
1567.6000, -51.862
1567.7000, -52.022
1567.8000, -52.182
1567.9000, -52.354
1568.0000, -52.530
1568.1000, -52.717
1568.2000, -52.903
1568.3000, -53.089
1568.4000, -53.269
1568.5000, -53.452
1568.6000, -53.627
1568.7000, -53.823
1568.8000, -54.029
1568.9000, -54.240
1569.0000, -54.474
1569.1000, -54.722
1569.2000, -54.964
1569.3000, -55.209
1569.4000, -55.446
1569.5000, -55.689
1569.6000, -55.938
1569.7000, -56.181
1569.8000, -56.461
1569.9000, -56.735
1570.0000, -57.039
1570.1000, -57.336
1570.2000, -57.611
1570.3000, -57.919
1570.4000, -58.213
1570.5000, -58.533
1570.6000, -58.872
1570.7000, -59.232
1570.8000, -59.600
1570.9000, -60.000
1571.0000, -60.331
1571.1000, -60.717
1571.2000, -61.164
1571.3000, -61.581
1571.4000, -62.012
1571.5000, -62.457
1571.6000, -62.916
1571.7000, -63.439
1571.8000, -63.889
1571.9000, -64.403
1572.0000, -64.878
1572.1000, -65.475
1572.2000, -66.124
1572.3000, -66.652
1572.4000, -67.253
1572.5000, -67.911
1572.6000, -68.339
1572.7000, -69.157
1572.8000, -69.782
1572.9000, -70.576
1573.0000, -71.210
1573.1000, -71.948
1573.2000, -72.668
1573.3000, -73.071
1573.4000, -74.063
1573.5000, -73.762
1573.6000, -74.805
1573.7000, -75.357
1573.8000, -76.105
1573.9000, -75.448
1574.0000, -75.954
1574.1000, -75.486
1574.2000, -75.198
1574.3000, -74.995
1574.4000, -74.710
1574.5000, -74.505
1574.6000, -74.476
1574.7000, -73.643
1574.8000, -73.123
1574.9000, -72.960
1575.0000, -72.081
1575.1000, -72.084
1575.2000, -71.647
1575.3000, -71.705
1575.4000, -71.041
1575.5000, -70.822
1575.6000, -70.587
1575.7000, -70.427
1575.8000, -70.158
1575.9000, -70.144
1576.0000, -69.868
1576.1000, -69.712
1576.2000, -69.739
1576.3000, -69.534
1576.4000, -69.498
1576.5000, -69.498
1576.6000, -69.415
1576.7000, -69.301
1576.8000, -69.268
1576.9000, -69.389
1577.0000, -69.348
1577.1000, -69.192
1577.2000, -69.152
1577.3000, -69.445
1577.4000, -69.144
1577.5000, -69.456
1577.6000, -69.085
1577.7000, -69.259
1577.8000, -69.225
1577.9000, -69.244
1578.0000, -69.496
1578.1000, -69.262
1578.2000, -69.682
1578.3000, -69.572
1578.4000, -69.765
1578.5000, -69.714
1578.6000, -69.993
1578.7000, -69.800
1578.8000, -69.983
1578.9000, -69.965
1579.0000, -70.067
1579.1000, -69.894
1579.2000, -69.970
1579.3000, -70.330
1579.4000, -70.266
1579.5000, -70.246
1579.6000, -70.315
1579.7000, -70.442
1579.8000, -70.520
1579.9000, -70.743
1580.0000, -70.685
1580.1000, -70.581
1580.2000, -70.839
1580.3000, -70.685
1580.4000, -70.652
1580.5000, -70.818
1580.6000, -70.541
1580.7000, -70.800
1580.8000, -70.491
1580.9000, -70.567
1581.0000, -70.517
1581.1000, -70.324
1581.2000, -70.404
1581.3000, -70.321
1581.4000, -70.288
1581.5000, -69.864
1581.6000, -69.910
1581.7000, -69.641
1581.8000, -69.742
1581.9000, -69.445
1582.0000, -69.400
1582.1000, -69.264
1582.2000, -69.137
1582.3000, -69.079
1582.4000, -68.705
1582.5000, -68.578
1582.6000, -68.538
1582.7000, -68.254
1582.8000, -68.064
1582.9000, -68.065
1583.0000, -67.688
1583.1000, -67.553
1583.2000, -67.462
1583.3000, -67.290
1583.4000, -67.169
1583.5000, -67.065
1583.6000, -66.976
1583.7000, -66.746
1583.8000, -66.673
1583.9000, -66.648
1584.0000, -66.457
1584.1000, -66.408
1584.2000, -66.265
1584.3000, -66.138
1584.4000, -66.062
1584.5000, -65.956
1584.6000, -65.763
1584.7000, -65.773
1584.8000, -65.645
1584.9000, -65.517
1585.0000, -65.375
1585.1000, -65.317
1585.2000, -65.289
1585.3000, -65.178
1585.4000, -65.102
1585.5000, -65.017
1585.6000, -64.939
1585.7000, -64.839
1585.8000, -64.799
1585.9000, -64.733
1586.0000, -64.610
1586.1000, -64.629
1586.2000, -64.570
1586.3000, -64.505
1586.4000, -64.522
1586.5000, -64.408
1586.6000, -64.472
1586.7000, -64.462
1586.8000, -64.368
1586.9000, -64.368
1587.0000, -64.318
1587.1000, -64.368
1587.2000, -64.369
1587.3000, -64.368
1587.4000, -64.419
1587.5000, -64.483
1587.6000, -64.548
1587.7000, -64.570
1587.8000, -64.600
1587.9000, -64.626
1588.0000, -64.761
1588.1000, -64.806
1588.2000, -64.881
1588.3000, -64.962
1588.4000, -65.078
1588.5000, -65.182
1588.6000, -65.359
1588.7000, -65.361
1588.8000, -65.449
1588.9000, -65.619
1589.0000, -65.768
1589.1000, -65.908
1589.2000, -66.003
1589.3000, -66.162
1589.4000, -66.339
1589.5000, -66.411
1589.6000, -66.733
1589.7000, -66.847
1589.8000, -67.029
1589.9000, -67.171
1590.0000, -67.419
1590.1000, -67.680
1590.2000, -67.918
1590.3000, -68.215
1590.4000, -68.433
1590.5000, -68.650
1590.6000, -68.922
1590.7000, -69.255
1590.8000, -69.704
1590.9000, -69.825
1591.0000, -70.443
1591.1000, -70.525
1591.2000, -71.052
1591.3000, -71.248
1591.4000, -71.629
1591.5000, -71.994
1591.6000, -72.433
1591.7000, -72.942
1591.8000, -73.626
1591.9000, -74.279
1592.0000, -74.551
1592.1000, -74.990
1592.2000, -75.159
1592.3000, -75.786
1592.4000, -76.030
1592.5000, -77.300
1592.6000, -76.171
1592.7000, -76.989
1592.8000, -76.592
1592.9000, -77.571
1593.0000, -76.281
1593.1000, -76.847
1593.2000, -76.822
1593.3000, -76.309
1593.4000, -76.714
1593.5000, -76.027
1593.6000, -75.123
1593.7000, -74.560
1593.8000, -75.325
1593.9000, -74.031
1594.0000, -73.929
1594.1000, -73.317
1594.2000, -73.138
1594.3000, -72.479
1594.4000, -71.993
1594.5000, -72.039
1594.6000, -71.613
1594.7000, -71.475
1594.8000, -70.604
1594.9000, -71.038
1595.0000, -70.226
1595.1000, -69.931
1595.2000, -70.177
1595.3000, -69.557
1595.4000, -69.387
1595.5000, -69.227
1595.6000, -69.208
1595.7000, -68.887
1595.8000, -68.726
1595.9000, -68.468
1596.0000, -68.391
1596.1000, -68.239
1596.2000, -68.117
1596.3000, -67.932
1596.4000, -67.689
1596.5000, -67.549
1596.6000, -67.478
1596.7000, -67.448
1596.8000, -67.336
1596.9000, -67.223
1597.0000, -67.164
1597.1000, -67.050
1597.2000, -66.886
1597.3000, -66.954
1597.4000, -66.688
1597.5000, -66.656
1597.6000, -66.544
1597.7000, -66.561
1597.8000, -66.571
1597.9000, -66.458
1598.0000, -66.440
1598.1000, -66.387
1598.2000, -66.380
1598.3000, -66.310
1598.4000, -66.320
1598.5000, -66.329
1598.6000, -66.253
1598.7000, -66.386
1598.8000, -66.238
1598.9000, -66.232
1599.0000, -66.180
1599.1000, -66.300
1599.2000, -66.240
1599.3000, -66.365
1599.4000, -66.404
1599.5000, -66.379
1599.6000, -66.571
1599.7000, -66.592
1599.8000, -66.532
1599.9000, -66.729
1600.0000, -66.861
1600.1000, -66.870
1600.2000, -66.993
1600.3000, -67.077
1600.4000, -67.214
1600.5000, -67.221
1600.6000, -67.514
1600.7000, -67.545
1600.8000, -67.684
1600.9000, -67.812
1601.0000, -67.999
1601.1000, -68.169
1601.2000, -68.315
1601.3000, -68.513
1601.4000, -68.638
1601.5000, -68.879
1601.6000, -69.220
1601.7000, -69.329
1601.8000, -69.692
1601.9000, -69.810
1602.0000, -70.092
1602.1000, -70.232
1602.2000, -70.608
1602.3000, -70.837
1602.4000, -70.891
1602.5000, -71.614
1602.6000, -71.725
1602.7000, -72.030
1602.8000, -71.909
1602.9000, -72.991
1603.0000, -72.562
1603.1000, -72.759
1603.2000, -72.989
1603.3000, -74.285
1603.4000, -73.595
1603.5000, -74.179
1603.6000, -74.614
1603.7000, -75.430
1603.8000, -76.039
1603.9000, -75.078
1604.0000, -76.048
1604.1000, -76.016
1604.2000, -78.289
1604.3000, -77.556
1604.4000, -76.156
1604.5000, -77.659
1604.6000, -77.905
1604.7000, -77.305
1604.8000, -78.499
1604.9000, -78.138
1605.0000, -79.147
1605.1000, -78.969
1605.2000, -79.393
1605.3000, -78.728
1605.4000, -78.331
1605.5000, -80.661
1605.6000, -78.479
1605.7000, -78.123
1605.8000, -78.590
1605.9000, -77.823
1606.0000, -78.834
1606.1000, -78.852
1606.2000, -77.186
1606.3000, -78.134
1606.4000, -77.611
1606.5000, -77.788
1606.6000, -77.889
1606.7000, -76.702
1606.8000, -76.131
1606.9000, -76.455
1607.0000, -75.383
1607.1000, -75.940
1607.2000, -75.969
1607.3000, -75.218
1607.4000, -74.798
1607.5000, -75.166
1607.6000, -75.057
1607.7000, -74.510
1607.8000, -73.980
1607.9000, -74.579
1608.0000, -73.831
1608.1000, -74.117
1608.2000, -73.263
1608.3000, -73.636
1608.4000, -72.870
1608.5000, -73.386
1608.6000, -73.147
1608.7000, -73.089
1608.8000, -72.783
1608.9000, -72.613
1609.0000, -72.766
1609.1000, -72.720
1609.2000, -72.370
1609.3000, -72.939
1609.4000, -72.476
1609.5000, -72.125
1609.6000, -72.353
1609.7000, -72.280
1609.8000, -72.790
1609.9000, -72.644
1610.0000, -72.108
1610.1000, -72.659
1610.2000, -72.476
1610.3000, -72.447
1610.4000, -72.531
1610.5000, -72.557
1610.6000, -72.450
1610.7000, -72.720
1610.8000, -72.856
1610.9000, -72.582
1611.0000, -72.404
1611.1000, -72.674
1611.2000, -72.966
1611.3000, -72.988
1611.4000, -73.050
1611.5000, -72.736
1611.6000, -72.677
1611.7000, -72.920
1611.8000, -72.984
1611.9000, -73.193
1612.0000, -72.924
1612.1000, -73.065
1612.2000, -73.315
1612.3000, -73.982
1612.4000, -72.984
1612.5000, -73.705
1612.6000, -73.387
1612.7000, -73.506
1612.8000, -73.374
1612.9000, -73.776
1613.0000, -74.164
1613.1000, -74.165
1613.2000, -73.902
1613.3000, -74.305
1613.4000, -74.266
1613.5000, -74.340
1613.6000, -73.968
1613.7000, -74.828
1613.8000, -74.708
1613.9000, -74.318
1614.0000, -75.261
1614.1000, -74.217
1614.2000, -75.561
1614.3000, -75.377
1614.4000, -75.378
1614.5000, -75.365
1614.6000, -75.860
1614.7000, -75.408
1614.8000, -76.749
1614.9000, -77.554
1615.0000, -75.949
1615.1000, -76.811
1615.2000, -77.807
1615.3000, -78.330
1615.4000, -77.078
1615.5000, -77.209
1615.6000, -77.598
1615.7000, -78.999
1615.8000, -80.380
1615.9000, -79.061
1616.0000, -80.471
1616.1000, -77.689
1616.2000, -84.055
1616.3000, -80.297
1616.4000, -82.521
1616.5000, -79.445
1616.6000, -83.038
1616.7000, -81.326
1616.8000, -81.380
1616.9000,-210.000
1617.0000, -79.229
1617.1000, -86.587
1617.2000, -87.571
1617.3000, -82.713
1617.4000, -82.783
1617.5000, -89.047
1617.6000, -83.959
1617.7000, -80.953
1617.8000,-210.000
1617.9000, -87.317
1618.0000, -87.439
1618.1000,-210.000
1618.2000,-210.000
1618.3000,-210.000
1618.4000, -85.408
1618.5000,-210.000
1618.6000, -88.548
1618.7000,-210.000
1618.8000, -89.843
1618.9000,-210.000
1619.0000,-210.000
1619.1000, -83.625
1619.2000,-210.000
1619.3000, -83.305
1619.4000, -83.674
1619.5000, -86.484
1619.6000, -83.104
1619.7000, -86.037
1619.8000, -84.530
1619.9000, -82.740
1620.0000, -81.921
