70BCSV 	
// AQ6370B OPTICAL SPECTRUM ANALYZER //                 
25
"CTRWL",1560.000000
"SPAN", 120.000000
"START WL",1500.000000
"STOP WL",1620.000000
"WLFREQ", 0
"REFL",-38.6
"LSCL", 6.0
"RESLN",0.500
"AVG",   1
"SMPLAUTO",      1
"SMPL",       1201
"SMPLINTVL",0.1000
"HIGH1"
"MEAS"
"LSUNT",0
"NMSKH","OFF"
"RESCOR",0
"RESPARM", 9740
"FREQPARM", 9740






"[TRACE DATA]"
1500.0000, -69.857
1500.1000, -69.733
1500.2000, -69.310
1500.3000, -69.138
1500.4000, -69.139
1500.5000, -68.787
1500.6000, -68.747
1500.7000, -68.503
1500.8000, -68.284
1500.9000, -68.244
1501.0000, -68.043
1501.1000, -67.932
1501.2000, -67.824
1501.3000, -67.796
1501.4000, -67.569
1501.5000, -67.517
1501.6000, -67.429
1501.7000, -67.357
1501.8000, -67.314
1501.9000, -67.227
1502.0000, -67.134
1502.1000, -67.103
1502.2000, -67.134
1502.3000, -67.102
1502.4000, -67.095
1502.5000, -67.231
1502.6000, -67.203
1502.7000, -67.427
1502.8000, -67.331
1502.9000, -67.451
1503.0000, -67.554
1503.1000, -67.660
1503.2000, -67.805
1503.3000, -67.876
1503.4000, -68.094
1503.5000, -68.268
1503.6000, -68.468
1503.7000, -68.722
1503.8000, -68.903
1503.9000, -69.204
1504.0000, -69.478
1504.1000, -69.799
1504.2000, -70.220
1504.3000, -70.632
1504.4000, -70.780
1504.5000, -71.186
1504.6000, -71.480
1504.7000, -72.003
1504.8000, -72.385
1504.9000, -73.140
1505.0000, -73.309
1505.1000, -73.741
1505.2000, -74.139
1505.3000, -74.623
1505.4000, -75.526
1505.5000, -76.429
1505.6000, -76.179
1505.7000, -77.679
1505.8000, -77.079
1505.9000, -78.476
1506.0000, -77.934
1506.1000, -77.952
1506.2000, -78.273
1506.3000, -76.840
1506.4000, -77.562
1506.5000, -77.736
1506.6000, -75.537
1506.7000, -77.311
1506.8000, -74.805
1506.9000, -74.461
1507.0000, -74.059
1507.1000, -73.701
1507.2000, -72.940
1507.3000, -72.341
1507.4000, -72.012
1507.5000, -71.346
1507.6000, -71.119
1507.7000, -70.622
1507.8000, -70.049
1507.9000, -69.871
1508.0000, -69.294
1508.1000, -68.905
1508.2000, -68.686
1508.3000, -68.377
1508.4000, -67.888
1508.5000, -67.734
1508.6000, -67.298
1508.7000, -67.041
1508.8000, -66.828
1508.9000, -66.495
1509.0000, -66.329
1509.1000, -66.144
1509.2000, -65.894
1509.3000, -65.694
1509.4000, -65.652
1509.5000, -65.394
1509.6000, -65.355
1509.7000, -65.174
1509.8000, -65.130
1509.9000, -65.024
1510.0000, -64.980
1510.1000, -64.923
1510.2000, -64.889
1510.3000, -64.885
1510.4000, -64.878
1510.5000, -64.870
1510.6000, -64.956
1510.7000, -64.972
1510.8000, -65.087
1510.9000, -65.160
1511.0000, -65.300
1511.1000, -65.387
1511.2000, -65.610
1511.3000, -65.729
1511.4000, -65.923
1511.5000, -66.157
1511.6000, -66.383
1511.7000, -66.701
1511.8000, -66.929
1511.9000, -67.327
1512.0000, -67.571
1512.1000, -68.006
1512.2000, -68.473
1512.3000, -68.819
1512.4000, -69.328
1512.5000, -69.707
1512.6000, -70.574
1512.7000, -71.167
1512.8000, -71.574
1512.9000, -72.059
1513.0000, -72.903
1513.1000, -73.690
1513.2000, -74.464
1513.3000, -74.881
1513.4000, -75.255
1513.5000, -75.949
1513.6000, -75.373
1513.7000, -75.903
1513.8000, -75.135
1513.9000, -74.254
1514.0000, -73.605
1514.1000, -73.045
1514.2000, -71.936
1514.3000, -71.334
1514.4000, -70.448
1514.5000, -69.587
1514.6000, -68.852
1514.7000, -68.264
1514.8000, -67.706
1514.9000, -67.112
1515.0000, -66.594
1515.1000, -66.144
1515.2000, -65.622
1515.3000, -65.203
1515.4000, -64.823
1515.5000, -64.370
1515.6000, -63.929
1515.7000, -63.599
1515.8000, -63.210
1515.9000, -62.867
1516.0000, -62.523
1516.1000, -62.229
1516.2000, -61.858
1516.3000, -61.594
1516.4000, -61.301
1516.5000, -61.048
1516.6000, -60.810
1516.7000, -60.566
1516.8000, -60.313
1516.9000, -60.112
1517.0000, -59.917
1517.1000, -59.693
1517.2000, -59.508
1517.3000, -59.333
1517.4000, -59.172
1517.5000, -59.015
1517.6000, -58.854
1517.7000, -58.719
1517.8000, -58.586
1517.9000, -58.467
1518.0000, -58.363
1518.1000, -58.284
1518.2000, -58.191
1518.3000, -58.115
1518.4000, -58.047
1518.5000, -57.979
1518.6000, -57.895
1518.7000, -57.837
1518.8000, -57.777
1518.9000, -57.735
1519.0000, -57.708
1519.1000, -57.654
1519.2000, -57.630
1519.3000, -57.604
1519.4000, -57.564
1519.5000, -57.549
1519.6000, -57.503
1519.7000, -57.480
1519.8000, -57.461
1519.9000, -57.420
1520.0000, -57.437
1520.1000, -57.438
1520.2000, -57.459
1520.3000, -57.472
1520.4000, -57.479
1520.5000, -57.451
1520.6000, -57.431
1520.7000, -57.391
1520.8000, -57.339
1520.9000, -57.288
1521.0000, -57.240
1521.1000, -57.193
1521.2000, -57.141
1521.3000, -57.060
1521.4000, -56.971
1521.5000, -56.875
1521.6000, -56.746
1521.7000, -56.603
1521.8000, -56.434
1521.9000, -56.247
1522.0000, -56.065
1522.1000, -55.848
1522.2000, -55.646
1522.3000, -55.411
1522.4000, -55.178
1522.5000, -54.904
1522.6000, -54.664
1522.7000, -54.413
1522.8000, -54.162
1522.9000, -53.897
1523.0000, -53.614
1523.1000, -53.301
1523.2000, -52.984
1523.3000, -52.661
1523.4000, -52.329
1523.5000, -52.036
1523.6000, -51.748
1523.7000, -51.467
1523.8000, -51.197
1523.9000, -50.938
1524.0000, -50.685
1524.1000, -50.460
1524.2000, -50.225
1524.3000, -50.006
1524.4000, -49.794
1524.5000, -49.575
1524.6000, -49.392
1524.7000, -49.215
1524.8000, -49.064
1524.9000, -48.935
1525.0000, -48.825
1525.1000, -48.717
1525.2000, -48.652
1525.3000, -48.619
1525.4000, -48.606
1525.5000, -48.594
1525.6000, -48.598
1525.7000, -48.604
1525.8000, -48.637
1525.9000, -48.701
1526.0000, -48.800
1526.1000, -48.947
1526.2000, -49.128
1526.3000, -49.317
1526.4000, -49.494
1526.5000, -49.626
1526.6000, -49.722
1526.7000, -49.778
1526.8000, -49.800
1526.9000, -49.771
1527.0000, -49.688
1527.1000, -49.536
1527.2000, -49.276
1527.3000, -48.922
1527.4000, -48.455
1527.5000, -47.932
1527.6000, -47.342
1527.7000, -46.722
1527.8000, -46.104
1527.9000, -45.473
1528.0000, -44.839
1528.1000, -44.183
1528.2000, -43.488
1528.3000, -42.799
1528.4000, -42.126
1528.5000, -41.478
1528.6000, -40.861
1528.7000, -40.269
1528.8000, -39.668
1528.9000, -39.068
1529.0000, -38.461
1529.1000, -37.882
1529.2000, -37.330
1529.3000, -36.763
1529.4000, -36.256
1529.5000, -35.721
1529.6000, -35.219
1529.7000, -34.704
1529.8000, -34.227
1529.9000, -33.801
1530.0000, -33.362
1530.1000, -32.970
1530.2000, -32.621
1530.3000, -32.285
1530.4000, -31.988
1530.5000, -31.687
1530.6000, -31.366
1530.7000, -31.051
1530.8000, -30.778
1530.9000, -30.527
1531.0000, -30.282
1531.1000, -30.065
1531.2000, -29.853
1531.3000, -29.671
1531.4000, -29.490
1531.5000, -29.333
1531.6000, -29.219
1531.7000, -29.089
1531.8000, -28.985
1531.9000, -28.897
1532.0000, -28.834
1532.1000, -28.799
1532.2000, -28.769
1532.3000, -28.756
1532.4000, -28.726
1532.5000, -28.717
1532.6000, -28.772
1532.7000, -28.816
1532.8000, -28.892
1532.9000, -29.012
1533.0000, -29.125
1533.1000, -29.273
1533.2000, -29.452
1533.3000, -29.650
1533.4000, -29.878
1533.5000, -30.090
1533.6000, -30.340
1533.7000, -30.648
1533.8000, -30.941
1533.9000, -31.248
1534.0000, -31.565
1534.1000, -31.904
1534.2000, -32.279
1534.3000, -32.664
1534.4000, -33.080
1534.5000, -33.512
1534.6000, -33.932
1534.7000, -34.383
1534.8000, -34.878
1534.9000, -35.389
1535.0000, -35.906
1535.1000, -36.449
1535.2000, -36.973
1535.3000, -37.501
1535.4000, -38.073
1535.5000, -38.636
1535.6000, -39.206
1535.7000, -39.775
1535.8000, -40.357
1535.9000, -40.938
1536.0000, -41.488
1536.1000, -42.063
1536.2000, -42.676
1536.3000, -43.284
1536.4000, -43.899
1536.5000, -44.529
1536.6000, -45.163
1536.7000, -45.802
1536.8000, -46.419
1536.9000, -46.991
1537.0000, -47.517
1537.1000, -48.046
1537.2000, -48.565
1537.3000, -49.060
1537.4000, -49.554
1537.5000, -49.981
1537.6000, -50.348
1537.7000, -50.629
1537.8000, -50.826
1537.9000, -50.931
1538.0000, -50.917
1538.1000, -50.802
1538.2000, -50.620
1538.3000, -50.375
1538.4000, -50.083
1538.5000, -49.767
1538.6000, -49.425
1538.7000, -49.078
1538.8000, -48.730
1538.9000, -48.396
1539.0000, -48.089
1539.1000, -47.750
1539.2000, -47.476
1539.3000, -47.197
1539.4000, -46.916
1539.5000, -46.646
1539.6000, -46.391
1539.7000, -46.144
1539.8000, -45.896
1539.9000, -45.682
1540.0000, -45.474
1540.1000, -45.282
1540.2000, -45.113
1540.3000, -44.955
1540.4000, -44.808
1540.5000, -44.667
1540.6000, -44.535
1540.7000, -44.431
1540.8000, -44.338
1540.9000, -44.255
1541.0000, -44.193
1541.1000, -44.138
1541.2000, -44.089
1541.3000, -44.053
1541.4000, -44.023
1541.5000, -44.002
1541.6000, -44.003
1541.7000, -44.017
1541.8000, -44.035
1541.9000, -44.069
1542.0000, -44.106
1542.1000, -44.161
1542.2000, -44.227
1542.3000, -44.322
1542.4000, -44.414
1542.5000, -44.533
1542.6000, -44.654
1542.7000, -44.792
1542.8000, -44.940
1542.9000, -45.098
1543.0000, -45.284
1543.1000, -45.470
1543.2000, -45.669
1543.3000, -45.882
1543.4000, -46.115
1543.5000, -46.363
1543.6000, -46.617
1543.7000, -46.873
1543.8000, -47.158
1543.9000, -47.472
1544.0000, -47.818
1544.1000, -48.191
1544.2000, -48.581
1544.3000, -48.974
1544.4000, -49.381
1544.5000, -49.790
1544.6000, -50.312
1544.7000, -50.679
1544.8000, -51.187
1544.9000, -51.721
1545.0000, -52.309
1545.1000, -52.946
1545.2000, -53.584
1545.3000, -54.215
1545.4000, -54.801
1545.5000, -55.311
1545.6000, -55.750
1545.7000, -56.079
1545.8000, -56.277
1545.9000, -56.341
1546.0000, -56.243
1546.1000, -56.016
1546.2000, -55.669
1546.3000, -55.210
1546.4000, -54.666
1546.5000, -54.048
1546.6000, -53.406
1546.7000, -52.765
1546.8000, -52.171
1546.9000, -51.601
1547.0000, -51.062
1547.1000, -50.543
1547.2000, -50.038
1547.3000, -49.566
1547.4000, -49.126
1547.5000, -48.720
1547.6000, -48.337
1547.7000, -47.994
1547.8000, -47.664
1547.9000, -47.386
1548.0000, -47.110
1548.1000, -46.835
1548.2000, -46.573
1548.3000, -46.340
1548.4000, -46.121
1548.5000, -45.915
1548.6000, -45.721
1548.7000, -45.543
1548.8000, -45.376
1548.9000, -45.233
1549.0000, -45.101
1549.1000, -44.998
1549.2000, -44.916
1549.3000, -44.856
1549.4000, -44.818
1549.5000, -44.781
1549.6000, -44.752
1549.7000, -44.754
1549.8000, -44.772
1549.9000, -44.815
1550.0000, -44.881
1550.1000, -44.957
1550.2000, -45.041
1550.3000, -45.122
1550.4000, -45.218
1550.5000, -45.320
1550.6000, -45.447
1550.7000, -45.599
1550.8000, -45.771
1550.9000, -45.972
1551.0000, -46.187
1551.1000, -46.421
1551.2000, -46.665
1551.3000, -46.924
1551.4000, -47.208
1551.5000, -47.500
1551.6000, -47.808
1551.7000, -48.108
1551.8000, -48.426
1551.9000, -48.728
1552.0000, -49.048
1552.1000, -49.393
1552.2000, -49.754
1552.3000, -50.175
1552.4000, -50.479
1552.5000, -50.827
1552.6000, -51.120
1552.7000, -51.389
1552.8000, -51.625
1552.9000, -51.827
1553.0000, -51.989
1553.1000, -52.100
1553.2000, -52.148
1553.3000, -52.118
1553.4000, -52.014
1553.5000, -51.844
1553.6000, -51.624
1553.7000, -51.385
1553.8000, -51.130
1553.9000, -50.870
1554.0000, -50.598
1554.1000, -50.303
1554.2000, -49.986
1554.3000, -49.656
1554.4000, -49.317
1554.5000, -48.993
1554.6000, -48.689
1554.7000, -48.396
1554.8000, -48.119
1554.9000, -47.804
1555.0000, -47.536
1555.1000, -47.307
1555.2000, -47.059
1555.3000, -46.810
1555.4000, -46.577
1555.5000, -46.358
1555.6000, -46.153
1555.7000, -45.966
1555.8000, -45.784
1555.9000, -45.608
1556.0000, -45.429
1556.1000, -45.255
1556.2000, -45.111
1556.3000, -44.971
1556.4000, -44.841
1556.5000, -44.703
1556.6000, -44.578
1556.7000, -44.473
1556.8000, -44.379
1556.9000, -44.285
1557.0000, -44.213
1557.1000, -44.158
1557.2000, -44.111
1557.3000, -44.070
1557.4000, -44.037
1557.5000, -44.010
1557.6000, -43.994
1557.7000, -44.002
1557.8000, -44.019
1557.9000, -44.033
1558.0000, -44.048
1558.1000, -44.068
1558.2000, -44.102
1558.3000, -44.154
1558.4000, -44.213
1558.5000, -44.285
1558.6000, -44.364
1558.7000, -44.447
1558.8000, -44.529
1558.9000, -44.619
1559.0000, -44.722
1559.1000, -44.837
1559.2000, -44.976
1559.3000, -45.117
1559.4000, -45.279
1559.5000, -45.447
1559.6000, -45.624
1559.7000, -45.804
1559.8000, -46.001
1559.9000, -46.216
1560.0000, -46.453
1560.1000, -46.697
1560.2000, -46.949
1560.3000, -47.195
1560.4000, -47.468
1560.5000, -47.734
1560.6000, -48.020
1560.7000, -48.306
1560.8000, -48.611
1560.9000, -48.913
1561.0000, -49.218
1561.1000, -49.531
1561.2000, -49.862
1561.3000, -50.228
1561.4000, -50.572
1561.5000, -50.943
1561.6000, -51.344
1561.7000, -51.724
1561.8000, -52.106
1561.9000, -52.463
1562.0000, -52.808
1562.1000, -53.136
1562.2000, -53.452
1562.3000, -53.739
1562.4000, -54.015
1562.5000, -54.263
1562.6000, -54.501
1562.7000, -54.726
1562.8000, -54.953
1562.9000, -55.127
1563.0000, -55.292
1563.1000, -55.402
1563.2000, -55.497
1563.3000, -55.569
1563.4000, -55.592
1563.5000, -55.594
1563.6000, -55.547
1563.7000, -55.445
1563.8000, -55.315
1563.9000, -55.193
1564.0000, -55.057
1564.1000, -54.933
1564.2000, -54.802
1564.3000, -54.687
1564.4000, -54.583
1564.5000, -54.468
1564.6000, -54.365
1564.7000, -54.269
1564.8000, -54.158
1564.9000, -54.042
1565.0000, -53.920
1565.1000, -53.789
1565.2000, -53.653
1565.3000, -53.522
1565.4000, -53.392
1565.5000, -53.271
1565.6000, -53.165
1565.7000, -53.082
1565.8000, -53.009
1565.9000, -52.942
1566.0000, -52.892
1566.1000, -52.847
1566.2000, -52.811
1566.3000, -52.774
1566.4000, -52.741
1566.5000, -52.719
1566.6000, -52.716
1566.7000, -52.718
1566.8000, -52.739
1566.9000, -52.792
1567.0000, -52.850
1567.1000, -52.919
1567.2000, -53.014
1567.3000, -53.111
1567.4000, -53.225
1567.5000, -53.347
1567.6000, -53.481
1567.7000, -53.622
1567.8000, -53.759
1567.9000, -53.915
1568.0000, -54.081
1568.1000, -54.261
1568.2000, -54.437
1568.3000, -54.607
1568.4000, -54.775
1568.5000, -54.935
1568.6000, -55.083
1568.7000, -55.250
1568.8000, -55.411
1568.9000, -55.620
1569.0000, -55.831
1569.1000, -56.066
1569.2000, -56.305
1569.3000, -56.525
1569.4000, -56.739
1569.5000, -56.958
1569.6000, -57.185
1569.7000, -57.429
1569.8000, -57.686
1569.9000, -57.952
1570.0000, -58.212
1570.1000, -58.496
1570.2000, -58.764
1570.3000, -59.047
1570.4000, -59.349
1570.5000, -59.663
1570.6000, -59.969
1570.7000, -60.314
1570.8000, -60.666
1570.9000, -61.005
1571.0000, -61.413
1571.1000, -61.788
1571.2000, -62.126
1571.3000, -62.558
1571.4000, -62.919
1571.5000, -63.338
1571.6000, -63.705
1571.7000, -64.068
1571.8000, -64.463
1571.9000, -64.821
1572.0000, -65.166
1572.1000, -65.559
1572.2000, -65.705
1572.3000, -66.096
1572.4000, -66.241
1572.5000, -66.467
1572.6000, -66.541
1572.7000, -66.573
1572.8000, -66.744
1572.9000, -66.740
1573.0000, -66.942
1573.1000, -66.822
1573.2000, -66.711
1573.3000, -66.613
1573.4000, -66.520
1573.5000, -66.637
1573.6000, -66.367
1573.7000, -66.253
1573.8000, -66.199
1573.9000, -65.993
1574.0000, -65.886
1574.1000, -65.867
1574.2000, -65.593
1574.3000, -65.444
1574.4000, -65.292
1574.5000, -65.205
1574.6000, -64.882
1574.7000, -64.750
1574.8000, -64.558
1574.9000, -64.368
1575.0000, -64.204
1575.1000, -63.959
1575.2000, -63.804
1575.3000, -63.590
1575.4000, -63.433
1575.5000, -63.238
1575.6000, -63.084
1575.7000, -62.931
1575.8000, -62.782
1575.9000, -62.605
1576.0000, -62.455
1576.1000, -62.346
1576.2000, -62.182
1576.3000, -62.096
1576.4000, -61.993
1576.5000, -61.885
1576.6000, -61.815
1576.7000, -61.730
1576.8000, -61.634
1576.9000, -61.566
1577.0000, -61.499
1577.1000, -61.461
1577.2000, -61.385
1577.3000, -61.327
1577.4000, -61.266
1577.5000, -61.211
1577.6000, -61.174
1577.7000, -61.149
1577.8000, -61.072
1577.9000, -61.012
1578.0000, -61.003
1578.1000, -60.956
1578.2000, -60.989
1578.3000, -60.943
1578.4000, -60.918
1578.5000, -60.899
1578.6000, -60.901
1578.7000, -60.855
1578.8000, -60.873
1578.9000, -60.855
1579.0000, -60.858
1579.1000, -60.836
1579.2000, -60.823
1579.3000, -60.822
1579.4000, -60.813
1579.5000, -60.822
1579.6000, -60.827
1579.7000, -60.839
1579.8000, -60.882
1579.9000, -60.895
1580.0000, -60.940
1580.1000, -60.988
1580.2000, -61.014
1580.3000, -61.038
1580.4000, -61.090
1580.5000, -61.098
1580.6000, -61.164
1580.7000, -61.230
1580.8000, -61.256
1580.9000, -61.323
1581.0000, -61.362
1581.1000, -61.467
1581.2000, -61.538
1581.3000, -61.609
1581.4000, -61.637
1581.5000, -61.717
1581.6000, -61.837
1581.7000, -61.919
1581.8000, -62.041
1581.9000, -62.187
1582.0000, -62.292
1582.1000, -62.417
1582.2000, -62.548
1582.3000, -62.640
1582.4000, -62.797
1582.5000, -62.925
1582.6000, -63.051
1582.7000, -63.198
1582.8000, -63.390
1582.9000, -63.574
1583.0000, -63.776
1583.1000, -63.929
1583.2000, -64.127
1583.3000, -64.387
1583.4000, -64.612
1583.5000, -64.841
1583.6000, -65.126
1583.7000, -65.306
1583.8000, -65.655
1583.9000, -65.841
1584.0000, -66.149
1584.1000, -66.429
1584.2000, -66.689
1584.3000, -67.069
1584.4000, -67.344
1584.5000, -67.700
1584.6000, -68.092
1584.7000, -68.278
1584.8000, -68.728
1584.9000, -69.163
1585.0000, -69.665
1585.1000, -70.009
1585.2000, -70.504
1585.3000, -71.000
1585.4000, -71.279
1585.5000, -71.974
1585.6000, -71.852
1585.7000, -73.097
1585.8000, -73.504
1585.9000, -74.311
1586.0000, -74.412
1586.1000, -75.618
1586.2000, -76.204
1586.3000, -77.266
1586.4000, -77.292
1586.5000, -78.338
1586.6000, -76.592
1586.7000, -78.350
1586.8000, -78.154
1586.9000, -78.179
1587.0000, -76.342
1587.1000, -77.250
1587.2000, -75.114
1587.3000, -75.324
1587.4000, -74.751
1587.5000, -73.902
1587.6000, -73.492
1587.7000, -72.702
1587.8000, -72.716
1587.9000, -72.002
1588.0000, -71.510
1588.1000, -71.229
1588.2000, -70.741
1588.3000, -70.436
1588.4000, -70.057
1588.5000, -69.842
1588.6000, -69.461
1588.7000, -69.169
1588.8000, -68.908
1588.9000, -68.568
1589.0000, -68.373
1589.1000, -68.232
1589.2000, -67.916
1589.3000, -67.764
1589.4000, -67.554
1589.5000, -67.513
1589.6000, -67.245
1589.7000, -67.098
1589.8000, -66.750
1589.9000, -66.871
1590.0000, -66.648
1590.1000, -66.525
1590.2000, -66.406
1590.3000, -66.385
1590.4000, -66.202
1590.5000, -66.189
1590.6000, -66.162
1590.7000, -66.105
1590.8000, -66.071
1590.9000, -66.076
1591.0000, -65.995
1591.1000, -65.978
1591.2000, -66.035
1591.3000, -65.960
1591.4000, -65.933
1591.5000, -65.942
1591.6000, -66.050
1591.7000, -65.998
1591.8000, -65.981
1591.9000, -66.204
1592.0000, -66.057
1592.1000, -66.203
1592.2000, -66.194
1592.3000, -66.274
1592.4000, -66.339
1592.5000, -66.513
1592.6000, -66.528
1592.7000, -66.525
1592.8000, -66.788
1592.9000, -66.907
1593.0000, -66.937
1593.1000, -66.924
1593.2000, -67.009
1593.3000, -67.273
1593.4000, -67.262
1593.5000, -67.487
1593.6000, -67.509
1593.7000, -67.550
1593.8000, -67.834
1593.9000, -67.972
1594.0000, -67.849
1594.1000, -68.196
1594.2000, -68.444
1594.3000, -68.566
1594.4000, -68.615
1594.5000, -68.704
1594.6000, -68.976
1594.7000, -68.895
1594.8000, -69.320
1594.9000, -69.213
1595.0000, -69.557
1595.1000, -69.507
1595.2000, -69.900
1595.3000, -70.020
1595.4000, -69.990
1595.5000, -69.876
1595.6000, -70.287
1595.7000, -70.282
1595.8000, -70.335
1595.9000, -70.709
1596.0000, -70.645
1596.1000, -70.656
1596.2000, -70.693
1596.3000, -70.738
1596.4000, -70.996
1596.5000, -70.965
1596.6000, -70.920
1596.7000, -70.947
1596.8000, -71.301
1596.9000, -71.069
1597.0000, -71.192
1597.1000, -71.303
1597.2000, -71.186
1597.3000, -70.844
1597.4000, -71.386
1597.5000, -71.194
1597.6000, -71.237
1597.7000, -71.117
1597.8000, -71.015
1597.9000, -70.708
1598.0000, -71.346
1598.1000, -71.239
1598.2000, -71.377
1598.3000, -71.152
1598.4000, -70.971
1598.5000, -71.258
1598.6000, -71.190
1598.7000, -71.227
1598.8000, -71.009
1598.9000, -71.486
1599.0000, -70.949
1599.1000, -70.854
1599.2000, -71.419
1599.3000, -71.305
1599.4000, -71.402
1599.5000, -71.722
1599.6000, -71.565
1599.7000, -71.536
1599.8000, -71.591
1599.9000, -71.586
1600.0000, -71.879
1600.1000, -71.343
1600.2000, -71.519
1600.3000, -71.835
1600.4000, -72.117
1600.5000, -71.974
1600.6000, -72.331
1600.7000, -72.419
1600.8000, -73.062
1600.9000, -72.962
1601.0000, -72.936
1601.1000, -72.682
1601.2000, -72.725
1601.3000, -73.784
1601.4000, -73.557
1601.5000, -74.341
1601.6000, -74.438
1601.7000, -74.292
1601.8000, -74.814
1601.9000, -75.027
1602.0000, -74.948
1602.1000, -74.877
1602.2000, -75.713
1602.3000, -76.247
1602.4000, -76.434
1602.5000, -76.665
1602.6000, -75.480
1602.7000, -77.341
1602.8000, -75.798
1602.9000, -77.388
1603.0000, -75.387
1603.1000, -76.357
1603.2000, -76.938
1603.3000, -78.056
1603.4000, -76.063
1603.5000, -76.735
1603.6000, -77.322
1603.7000, -76.497
1603.8000, -77.374
1603.9000, -77.450
1604.0000, -76.440
1604.1000, -78.012
1604.2000, -76.609
1604.3000, -76.274
1604.4000, -75.518
1604.5000, -75.723
1604.6000, -75.863
1604.7000, -75.713
1604.8000, -75.400
1604.9000, -75.268
1605.0000, -75.023
1605.1000, -74.922
1605.2000, -74.996
1605.3000, -75.172
1605.4000, -74.986
1605.5000, -74.629
1605.6000, -74.290
1605.7000, -74.454
1605.8000, -73.947
1605.9000, -74.102
1606.0000, -74.137
1606.1000, -73.950
1606.2000, -73.945
1606.3000, -73.897
1606.4000, -73.082
1606.5000, -73.331
1606.6000, -73.136
1606.7000, -73.277
1606.8000, -73.425
1606.9000, -73.110
1607.0000, -73.375
1607.1000, -72.953
1607.2000, -73.119
1607.3000, -72.443
1607.4000, -72.490
1607.5000, -72.820
1607.6000, -72.651
1607.7000, -72.376
1607.8000, -72.764
1607.9000, -72.490
1608.0000, -72.738
1608.1000, -72.510
1608.2000, -72.632
1608.3000, -72.737
1608.4000, -72.622
1608.5000, -72.714
1608.6000, -72.935
1608.7000, -72.811
1608.8000, -73.275
1608.9000, -73.200
1609.0000, -73.371
1609.1000, -73.498
1609.2000, -73.456
1609.3000, -73.440
1609.4000, -73.362
1609.5000, -74.337
1609.6000, -74.910
1609.7000, -74.385
1609.8000, -74.239
1609.9000, -75.210
1610.0000, -74.969
1610.1000, -76.026
1610.2000, -76.250
1610.3000, -76.253
1610.4000, -76.273
1610.5000, -78.364
1610.6000, -78.635
1610.7000, -78.585
1610.8000, -78.314
1610.9000, -79.459
1611.0000, -78.314
1611.1000, -81.481
1611.2000, -82.143
1611.3000, -85.457
1611.4000, -81.055
1611.5000, -84.087
1611.6000,-210.000
1611.7000, -81.201
1611.8000, -82.718
1611.9000,-210.000
1612.0000, -80.861
1612.1000, -84.618
1612.2000,-210.000
1612.3000, -92.022
1612.4000,-210.000
1612.5000, -81.071
1612.6000, -83.698
1612.7000, -85.109
1612.8000, -82.719
1612.9000, -84.714
1613.0000,-210.000
1613.1000, -83.396
1613.2000, -80.152
1613.3000, -80.939
1613.4000, -78.894
1613.5000, -79.096
1613.6000, -78.987
1613.7000, -79.767
1613.8000, -78.243
1613.9000, -77.728
1614.0000, -75.988
1614.1000, -76.359
1614.2000, -75.916
1614.3000, -76.089
1614.4000, -75.301
1614.5000, -74.842
1614.6000, -74.881
1614.7000, -75.083
1614.8000, -73.955
1614.9000, -73.964
1615.0000, -74.041
1615.1000, -73.176
1615.2000, -73.392
1615.3000, -73.760
1615.4000, -73.020
1615.5000, -72.710
1615.6000, -72.726
1615.7000, -72.742
1615.8000, -72.740
1615.9000, -72.596
1616.0000, -73.046
1616.1000, -72.160
1616.2000, -72.141
1616.3000, -72.486
1616.4000, -72.172
1616.5000, -72.236
1616.6000, -72.373
1616.7000, -72.116
1616.8000, -71.908
1616.9000, -72.080
1617.0000, -72.770
1617.1000, -72.030
1617.2000, -71.811
1617.3000, -72.064
1617.4000, -72.262
1617.5000, -72.142
1617.6000, -72.379
1617.7000, -72.298
1617.8000, -71.759
1617.9000, -72.616
1618.0000, -71.976
1618.1000, -72.419
1618.2000, -72.045
1618.3000, -72.347
1618.4000, -73.137
1618.5000, -72.027
1618.6000, -72.973
1618.7000, -73.066
1618.8000, -72.523
1618.9000, -73.034
1619.0000, -73.146
1619.1000, -72.933
1619.2000, -73.263
1619.3000, -73.818
1619.4000, -74.478
1619.5000, -73.769
1619.6000, -74.341
1619.7000, -74.001
1619.8000, -74.441
1619.9000, -75.124
1620.0000, -75.528
