70BCSV 	
// AQ6370B OPTICAL SPECTRUM ANALYZER //                 
25
"CTRWL",1560.000000
"SPAN", 120.000000
"START WL",1500.000000
"STOP WL",1620.000000
"WLFREQ", 0
"REFL",-38.6
"LSCL", 6.0
"RESLN",0.500
"AVG",   1
"SMPLAUTO",      1
"SMPL",       1201
"SMPLINTVL",0.1000
"HIGH1"
"MEAS"
"LSUNT",0
"NMSKH","OFF"
"RESCOR",0
"RESPARM", 9740
"FREQPARM", 9740






"[TRACE DATA]"
1500.0000, -71.277
1500.1000, -71.465
1500.2000, -71.639
1500.3000, -71.318
1500.4000, -71.477
1500.5000, -71.375
1500.6000, -71.252
1500.7000, -71.480
1500.8000, -71.026
1500.9000, -71.346
1501.0000, -71.092
1501.1000, -70.766
1501.2000, -70.756
1501.3000, -70.600
1501.4000, -70.264
1501.5000, -70.065
1501.6000, -69.876
1501.7000, -69.737
1501.8000, -69.323
1501.9000, -69.098
1502.0000, -68.811
1502.1000, -68.627
1502.2000, -68.198
1502.3000, -68.046
1502.4000, -67.661
1502.5000, -67.348
1502.6000, -67.103
1502.7000, -66.816
1502.8000, -66.642
1502.9000, -66.368
1503.0000, -66.093
1503.1000, -65.922
1503.2000, -65.647
1503.3000, -65.425
1503.4000, -65.244
1503.5000, -65.061
1503.6000, -64.836
1503.7000, -64.681
1503.8000, -64.478
1503.9000, -64.422
1504.0000, -64.273
1504.1000, -64.134
1504.2000, -63.953
1504.3000, -63.865
1504.4000, -63.802
1504.5000, -63.690
1504.6000, -63.624
1504.7000, -63.521
1504.8000, -63.418
1504.9000, -63.390
1505.0000, -63.346
1505.1000, -63.358
1505.2000, -63.275
1505.3000, -63.274
1505.4000, -63.253
1505.5000, -63.221
1505.6000, -63.267
1505.7000, -63.263
1505.8000, -63.278
1505.9000, -63.309
1506.0000, -63.370
1506.1000, -63.382
1506.2000, -63.425
1506.3000, -63.484
1506.4000, -63.505
1506.5000, -63.603
1506.6000, -63.593
1506.7000, -63.763
1506.8000, -63.781
1506.9000, -63.882
1507.0000, -64.043
1507.1000, -64.144
1507.2000, -64.299
1507.3000, -64.411
1507.4000, -64.562
1507.5000, -64.702
1507.6000, -64.859
1507.7000, -65.127
1507.8000, -65.331
1507.9000, -65.444
1508.0000, -65.780
1508.1000, -65.957
1508.2000, -66.251
1508.3000, -66.516
1508.4000, -66.932
1508.5000, -67.223
1508.6000, -67.683
1508.7000, -68.144
1508.8000, -68.558
1508.9000, -68.995
1509.0000, -69.586
1509.1000, -70.166
1509.2000, -70.775
1509.3000, -71.206
1509.4000, -72.035
1509.5000, -72.613
1509.6000, -73.455
1509.7000, -73.785
1509.8000, -74.305
1509.9000, -74.746
1510.0000, -74.594
1510.1000, -74.605
1510.2000, -74.207
1510.3000, -73.679
1510.4000, -73.076
1510.5000, -73.043
1510.6000, -71.750
1510.7000, -70.779
1510.8000, -70.146
1510.9000, -69.611
1511.0000, -68.787
1511.1000, -68.317
1511.2000, -67.766
1511.3000, -67.125
1511.4000, -66.615
1511.5000, -66.137
1511.6000, -65.748
1511.7000, -65.324
1511.8000, -64.938
1511.9000, -64.552
1512.0000, -64.172
1512.1000, -63.935
1512.2000, -63.645
1512.3000, -63.374
1512.4000, -63.109
1512.5000, -62.825
1512.6000, -62.633
1512.7000, -62.358
1512.8000, -62.181
1512.9000, -61.971
1513.0000, -61.799
1513.1000, -61.654
1513.2000, -61.504
1513.3000, -61.338
1513.4000, -61.252
1513.5000, -61.102
1513.6000, -60.989
1513.7000, -60.883
1513.8000, -60.800
1513.9000, -60.726
1514.0000, -60.685
1514.1000, -60.663
1514.2000, -60.592
1514.3000, -60.611
1514.4000, -60.621
1514.5000, -60.648
1514.6000, -60.681
1514.7000, -60.727
1514.8000, -60.782
1514.9000, -60.840
1515.0000, -60.909
1515.1000, -60.982
1515.2000, -61.083
1515.3000, -61.196
1515.4000, -61.292
1515.5000, -61.425
1515.6000, -61.526
1515.7000, -61.662
1515.8000, -61.842
1515.9000, -62.030
1516.0000, -62.208
1516.1000, -62.452
1516.2000, -62.686
1516.3000, -62.949
1516.4000, -63.219
1516.5000, -63.496
1516.6000, -63.824
1516.7000, -64.157
1516.8000, -64.602
1516.9000, -64.942
1517.0000, -65.312
1517.1000, -65.773
1517.2000, -66.228
1517.3000, -66.747
1517.4000, -67.209
1517.5000, -67.739
1517.6000, -68.405
1517.7000, -68.864
1517.8000, -69.365
1517.9000, -69.586
1518.0000, -69.924
1518.1000, -69.933
1518.2000, -69.890
1518.3000, -69.540
1518.4000, -69.144
1518.5000, -68.579
1518.6000, -67.957
1518.7000, -67.247
1518.8000, -66.503
1518.9000, -65.679
1519.0000, -64.930
1519.1000, -64.200
1519.2000, -63.491
1519.3000, -62.866
1519.4000, -62.211
1519.5000, -61.645
1519.6000, -61.089
1519.7000, -60.504
1519.8000, -59.949
1519.9000, -59.439
1520.0000, -58.903
1520.1000, -58.404
1520.2000, -57.944
1520.3000, -57.488
1520.4000, -57.054
1520.5000, -56.642
1520.6000, -56.224
1520.7000, -55.828
1520.8000, -55.415
1520.9000, -54.990
1521.0000, -54.600
1521.1000, -54.261
1521.2000, -53.901
1521.3000, -53.564
1521.4000, -53.227
1521.5000, -52.920
1521.6000, -52.610
1521.7000, -52.300
1521.8000, -51.999
1521.9000, -51.720
1522.0000, -51.443
1522.1000, -51.184
1522.2000, -50.936
1522.3000, -50.683
1522.4000, -50.447
1522.5000, -50.232
1522.6000, -50.018
1522.7000, -49.817
1522.8000, -49.626
1522.9000, -49.425
1523.0000, -49.226
1523.1000, -49.033
1523.2000, -48.836
1523.3000, -48.657
1523.4000, -48.469
1523.5000, -48.303
1523.6000, -48.147
1523.7000, -47.993
1523.8000, -47.844
1523.9000, -47.702
1524.0000, -47.568
1524.1000, -47.457
1524.2000, -47.341
1524.3000, -47.227
1524.4000, -47.129
1524.5000, -47.031
1524.6000, -46.944
1524.7000, -46.880
1524.8000, -46.818
1524.9000, -46.762
1525.0000, -46.713
1525.1000, -46.669
1525.2000, -46.640
1525.3000, -46.633
1525.4000, -46.650
1525.5000, -46.634
1525.6000, -46.621
1525.7000, -46.604
1525.8000, -46.605
1525.9000, -46.612
1526.0000, -46.648
1526.1000, -46.714
1526.2000, -46.809
1526.3000, -46.905
1526.4000, -47.010
1526.5000, -47.106
1526.6000, -47.185
1526.7000, -47.257
1526.8000, -47.319
1526.9000, -47.380
1527.0000, -47.467
1527.1000, -47.573
1527.2000, -47.679
1527.3000, -47.803
1527.4000, -47.938
1527.5000, -48.070
1527.6000, -48.194
1527.7000, -48.276
1527.8000, -48.350
1527.9000, -48.418
1528.0000, -48.461
1528.1000, -48.508
1528.2000, -48.588
1528.3000, -48.637
1528.4000, -48.700
1528.5000, -48.777
1528.6000, -48.848
1528.7000, -48.916
1528.8000, -48.917
1528.9000, -48.818
1529.0000, -48.618
1529.1000, -48.319
1529.2000, -47.911
1529.3000, -47.445
1529.4000, -46.908
1529.5000, -46.322
1529.6000, -45.738
1529.7000, -45.152
1529.8000, -44.562
1529.9000, -44.000
1530.0000, -43.458
1530.1000, -42.909
1530.2000, -42.407
1530.3000, -41.959
1530.4000, -41.476
1530.5000, -40.979
1530.6000, -40.456
1530.7000, -39.929
1530.8000, -39.457
1530.9000, -38.975
1531.0000, -38.518
1531.1000, -38.090
1531.2000, -37.658
1531.3000, -37.318
1531.4000, -36.944
1531.5000, -36.595
1531.6000, -36.256
1531.7000, -35.962
1531.8000, -35.668
1531.9000, -35.396
1532.0000, -35.144
1532.1000, -34.903
1532.2000, -34.678
1532.3000, -34.450
1532.4000, -34.244
1532.5000, -34.041
1532.6000, -33.853
1532.7000, -33.688
1532.8000, -33.551
1532.9000, -33.472
1533.0000, -33.360
1533.1000, -33.269
1533.2000, -33.203
1533.3000, -33.200
1533.4000, -33.182
1533.5000, -33.189
1533.6000, -33.224
1533.7000, -33.273
1533.8000, -33.353
1533.9000, -33.424
1534.0000, -33.496
1534.1000, -33.593
1534.2000, -33.704
1534.3000, -33.838
1534.4000, -33.991
1534.5000, -34.156
1534.6000, -34.327
1534.7000, -34.384
1534.8000, -34.642
1534.9000, -34.947
1535.0000, -35.185
1535.1000, -35.422
1535.2000, -35.674
1535.3000, -35.921
1535.4000, -36.193
1535.5000, -36.464
1535.6000, -36.747
1535.7000, -37.014
1535.8000, -37.272
1535.9000, -37.552
1536.0000, -37.812
1536.1000, -38.061
1536.2000, -38.326
1536.3000, -38.586
1536.4000, -38.854
1536.5000, -39.125
1536.6000, -39.403
1536.7000, -39.695
1536.8000, -39.977
1536.9000, -40.254
1537.0000, -40.491
1537.1000, -40.757
1537.2000, -40.982
1537.3000, -41.229
1537.4000, -41.473
1537.5000, -41.739
1537.6000, -41.988
1537.7000, -42.253
1537.8000, -42.515
1537.9000, -42.792
1538.0000, -43.078
1538.1000, -43.366
1538.2000, -43.656
1538.3000, -43.955
1538.4000, -44.258
1538.5000, -44.565
1538.6000, -44.875
1538.7000, -45.190
1538.8000, -45.508
1538.9000, -45.835
1539.0000, -46.158
1539.1000, -46.491
1539.2000, -46.817
1539.3000, -47.156
1539.4000, -47.509
1539.5000, -47.864
1539.6000, -48.232
1539.7000, -48.605
1539.8000, -48.970
1539.9000, -49.310
1540.0000, -49.615
1540.1000, -49.890
1540.2000, -50.169
1540.3000, -50.323
1540.4000, -50.489
1540.5000, -50.588
1540.6000, -50.618
1540.7000, -50.570
1540.8000, -50.468
1540.9000, -50.323
1541.0000, -50.137
1541.1000, -49.926
1541.2000, -49.662
1541.3000, -49.384
1541.4000, -49.079
1541.5000, -48.758
1541.6000, -48.432
1541.7000, -48.099
1541.8000, -47.732
1541.9000, -47.437
1542.0000, -47.071
1542.1000, -46.793
1542.2000, -46.510
1542.3000, -46.230
1542.4000, -45.966
1542.5000, -45.708
1542.6000, -45.458
1542.7000, -45.219
1542.8000, -45.005
1542.9000, -44.811
1543.0000, -44.624
1543.1000, -44.456
1543.2000, -44.296
1543.3000, -44.138
1543.4000, -43.989
1543.5000, -43.860
1543.6000, -43.741
1543.7000, -43.603
1543.8000, -43.483
1543.9000, -43.386
1544.0000, -43.298
1544.1000, -43.232
1544.2000, -43.175
1544.3000, -43.126
1544.4000, -43.079
1544.5000, -43.031
1544.6000, -42.983
1544.7000, -42.940
1544.8000, -42.898
1544.9000, -42.882
1545.0000, -42.856
1545.1000, -42.856
1545.2000, -42.869
1545.3000, -42.879
1545.4000, -42.892
1545.5000, -42.911
1545.6000, -42.945
1545.7000, -42.978
1545.8000, -43.032
1545.9000, -43.084
1546.0000, -43.156
1546.1000, -43.224
1546.2000, -43.317
1546.3000, -43.423
1546.4000, -43.532
1546.5000, -43.649
1546.6000, -43.762
1546.7000, -43.895
1546.8000, -44.049
1546.9000, -44.218
1547.0000, -44.401
1547.1000, -44.609
1547.2000, -44.830
1547.3000, -45.070
1547.4000, -45.337
1547.5000, -45.618
1547.6000, -45.907
1547.7000, -46.215
1547.8000, -46.536
1547.9000, -46.881
1548.0000, -47.255
1548.1000, -47.640
1548.2000, -48.046
1548.3000, -48.472
1548.4000, -48.929
1548.5000, -49.408
1548.6000, -49.943
1548.7000, -50.527
1548.8000, -51.163
1548.9000, -51.852
1549.0000, -52.680
1549.1000, -53.580
1549.2000, -54.556
1549.3000, -55.637
1549.4000, -56.848
1549.5000, -58.151
1549.6000, -59.622
1549.7000, -61.176
1549.8000, -62.684
1549.9000, -63.772
1550.0000, -63.900
1550.1000, -63.150
1550.2000, -61.850
1550.3000, -60.398
1550.4000, -58.992
1550.5000, -57.665
1550.6000, -56.487
1550.7000, -55.409
1550.8000, -54.461
1550.9000, -53.649
1551.0000, -52.949
1551.1000, -52.322
1551.2000, -51.751
1551.3000, -51.217
1551.4000, -50.761
1551.5000, -50.351
1551.6000, -49.992
1551.7000, -49.670
1551.8000, -49.373
1551.9000, -49.096
1552.0000, -48.831
1552.1000, -48.585
1552.2000, -48.368
1552.3000, -48.177
1552.4000, -48.021
1552.5000, -47.897
1552.6000, -47.785
1552.7000, -47.693
1552.8000, -47.619
1552.9000, -47.546
1553.0000, -47.487
1553.1000, -47.433
1553.2000, -47.399
1553.3000, -47.385
1553.4000, -47.386
1553.5000, -47.406
1553.6000, -47.436
1553.7000, -47.473
1553.8000, -47.517
1553.9000, -47.545
1554.0000, -47.578
1554.1000, -47.630
1554.2000, -47.695
1554.3000, -47.780
1554.4000, -47.882
1554.5000, -47.993
1554.6000, -48.117
1554.7000, -48.255
1554.8000, -48.407
1554.9000, -48.592
1555.0000, -48.769
1555.1000, -48.962
1555.2000, -49.155
1555.3000, -49.361
1555.4000, -49.587
1555.5000, -49.829
1555.6000, -50.140
1555.7000, -50.342
1555.8000, -50.623
1555.9000, -50.903
1556.0000, -51.226
1556.1000, -51.571
1556.2000, -51.933
1556.3000, -52.283
1556.4000, -52.637
1556.5000, -52.987
1556.6000, -53.350
1556.7000, -53.723
1556.8000, -54.122
1556.9000, -54.549
1557.0000, -54.979
1557.1000, -55.412
1557.2000, -55.791
1557.3000, -56.098
1557.4000, -56.352
1557.5000, -56.515
1557.6000, -56.542
1557.7000, -56.493
1557.8000, -56.401
1557.9000, -56.290
1558.0000, -56.180
1558.1000, -56.012
1558.2000, -55.807
1558.3000, -55.538
1558.4000, -55.224
1558.5000, -54.923
1558.6000, -54.603
1558.7000, -54.292
1558.8000, -53.973
1558.9000, -53.660
1559.0000, -53.360
1559.1000, -53.076
1559.2000, -52.796
1559.3000, -52.529
1559.4000, -52.287
1559.5000, -52.072
1559.6000, -51.867
1559.7000, -51.679
1559.8000, -51.504
1559.9000, -51.345
1560.0000, -51.195
1560.1000, -51.070
1560.2000, -50.966
1560.3000, -50.863
1560.4000, -50.776
1560.5000, -50.701
1560.6000, -50.637
1560.7000, -50.586
1560.8000, -50.557
1560.9000, -50.543
1561.0000, -50.534
1561.1000, -50.543
1561.2000, -50.560
1561.3000, -50.588
1561.4000, -50.628
1561.5000, -50.685
1561.6000, -50.754
1561.7000, -50.837
1561.8000, -50.947
1561.9000, -51.068
1562.0000, -51.203
1562.1000, -51.352
1562.2000, -51.508
1562.3000, -51.677
1562.4000, -51.841
1562.5000, -52.013
1562.6000, -52.176
1562.7000, -52.340
1562.8000, -52.518
1562.9000, -52.713
1563.0000, -52.911
1563.1000, -53.118
1563.2000, -53.327
1563.3000, -53.555
1563.4000, -53.792
1563.5000, -54.060
1563.6000, -54.348
1563.7000, -54.640
1563.8000, -54.960
1563.9000, -55.288
1564.0000, -55.633
1564.1000, -55.962
1564.2000, -56.351
1564.3000, -56.778
1564.4000, -57.174
1564.5000, -57.612
1564.6000, -58.052
1564.7000, -58.478
1564.8000, -58.914
1564.9000, -59.384
1565.0000, -59.913
1565.1000, -60.489
1565.2000, -61.131
1565.3000, -61.848
1565.4000, -62.693
1565.5000, -63.574
1565.6000, -64.630
1565.7000, -65.622
1565.8000, -66.814
1565.9000, -67.987
1566.0000, -69.352
1566.1000, -70.837
1566.2000, -72.238
1566.3000, -73.088
1566.4000, -73.389
1566.5000, -72.653
1566.6000, -71.813
1566.7000, -70.409
1566.8000, -69.028
1566.9000, -67.840
1567.0000, -66.701
1567.1000, -65.820
1567.2000, -65.048
1567.3000, -64.310
1567.4000, -63.679
1567.5000, -63.129
1567.6000, -62.631
1567.7000, -62.190
1567.8000, -61.772
1567.9000, -61.400
1568.0000, -61.069
1568.1000, -60.788
1568.2000, -60.559
1568.3000, -60.312
1568.4000, -60.118
1568.5000, -59.879
1568.6000, -59.697
1568.7000, -59.465
1568.8000, -59.277
1568.9000, -59.090
1569.0000, -58.923
1569.1000, -58.824
1569.2000, -58.745
1569.3000, -58.651
1569.4000, -58.558
1569.5000, -58.496
1569.6000, -58.373
1569.7000, -58.314
1569.8000, -58.254
1569.9000, -58.215
1570.0000, -58.161
1570.1000, -58.150
1570.2000, -58.131
1570.3000, -58.128
1570.4000, -58.103
1570.5000, -58.091
1570.6000, -58.089
1570.7000, -58.106
1570.8000, -58.126
1570.9000, -58.158
1571.0000, -58.199
1571.1000, -58.273
1571.2000, -58.342
1571.3000, -58.410
1571.4000, -58.473
1571.5000, -58.580
1571.6000, -58.677
1571.7000, -58.800
1571.8000, -58.915
1571.9000, -59.013
1572.0000, -59.144
1572.1000, -59.295
1572.2000, -59.458
1572.3000, -59.592
1572.4000, -59.778
1572.5000, -59.955
1572.6000, -60.127
1572.7000, -60.322
1572.8000, -60.504
1572.9000, -60.693
1573.0000, -60.898
1573.1000, -61.145
1573.2000, -61.323
1573.3000, -61.556
1573.4000, -61.746
1573.5000, -62.005
1573.6000, -62.217
1573.7000, -62.482
1573.8000, -62.740
1573.9000, -62.874
1574.0000, -63.161
1574.1000, -63.412
1574.2000, -63.708
1574.3000, -64.032
1574.4000, -64.369
1574.5000, -64.695
1574.6000, -65.021
1574.7000, -65.360
1574.8000, -65.746
1574.9000, -66.120
1575.0000, -66.503
1575.1000, -67.018
1575.2000, -67.408
1575.3000, -68.014
1575.4000, -68.391
1575.5000, -68.763
1575.6000, -69.410
1575.7000, -69.931
1575.8000, -70.435
1575.9000, -71.296
1576.0000, -71.241
1576.1000, -72.006
1576.2000, -71.962
1576.3000, -71.957
1576.4000, -72.309
1576.5000, -72.261
1576.6000, -72.309
1576.7000, -72.055
1576.8000, -71.652
1576.9000, -71.591
1577.0000, -70.825
1577.1000, -70.651
1577.2000, -70.291
1577.3000, -69.963
1577.4000, -69.515
1577.5000, -69.152
1577.6000, -68.792
1577.7000, -68.443
1577.8000, -67.785
1577.9000, -67.525
1578.0000, -67.225
1578.1000, -66.869
1578.2000, -66.552
1578.3000, -66.299
1578.4000, -65.863
1578.5000, -65.641
1578.6000, -65.517
1578.7000, -65.170
1578.8000, -64.989
1578.9000, -64.737
1579.0000, -64.502
1579.1000, -64.296
1579.2000, -64.072
1579.3000, -63.801
1579.4000, -63.573
1579.5000, -63.402
1579.6000, -63.185
1579.7000, -63.023
1579.8000, -62.852
1579.9000, -62.705
1580.0000, -62.571
1580.1000, -62.419
1580.2000, -62.285
1580.3000, -62.185
1580.4000, -62.014
1580.5000, -61.924
1580.6000, -61.816
1580.7000, -61.675
1580.8000, -61.583
1580.9000, -61.482
1581.0000, -61.407
1581.1000, -61.324
1581.2000, -61.206
1581.3000, -61.151
1581.4000, -61.021
1581.5000, -60.954
1581.6000, -60.912
1581.7000, -60.836
1581.8000, -60.797
1581.9000, -60.738
1582.0000, -60.698
1582.1000, -60.674
1582.2000, -60.672
1582.3000, -60.626
1582.4000, -60.602
1582.5000, -60.599
1582.6000, -60.562
1582.7000, -60.540
1582.8000, -60.531
1582.9000, -60.554
1583.0000, -60.540
1583.1000, -60.531
1583.2000, -60.565
1583.3000, -60.585
1583.4000, -60.620
1583.5000, -60.683
1583.6000, -60.721
1583.7000, -60.763
1583.8000, -60.844
1583.9000, -60.868
1584.0000, -60.972
1584.1000, -61.030
1584.2000, -61.084
1584.3000, -61.199
1584.4000, -61.232
1584.5000, -61.343
1584.6000, -61.409
1584.7000, -61.529
1584.8000, -61.580
1584.9000, -61.716
1585.0000, -61.827
1585.1000, -61.977
1585.2000, -62.076
1585.3000, -62.170
1585.4000, -62.288
1585.5000, -62.398
1585.6000, -62.585
1585.7000, -62.707
1585.8000, -62.927
1585.9000, -63.066
1586.0000, -63.244
1586.1000, -63.401
1586.2000, -63.694
1586.3000, -63.784
1586.4000, -64.037
1586.5000, -64.239
1586.6000, -64.494
1586.7000, -64.712
1586.8000, -65.034
1586.9000, -65.249
1587.0000, -65.583
1587.1000, -65.838
1587.2000, -66.143
1587.3000, -66.498
1587.4000, -66.877
1587.5000, -67.211
1587.6000, -67.599
1587.7000, -68.084
1587.8000, -68.439
1587.9000, -68.703
1588.0000, -69.187
1588.1000, -69.728
1588.2000, -70.029
1588.3000, -70.581
1588.4000, -70.706
1588.5000, -71.780
1588.6000, -71.583
1588.7000, -72.125
1588.8000, -72.367
1588.9000, -72.829
1589.0000, -72.981
1589.1000, -73.394
1589.2000, -73.607
1589.3000, -73.364
1589.4000, -73.042
1589.5000, -73.345
1589.6000, -73.097
1589.7000, -72.663
1589.8000, -72.735
1589.9000, -72.307
1590.0000, -72.035
1590.1000, -71.612
1590.2000, -71.340
1590.3000, -70.947
1590.4000, -70.360
1590.5000, -70.381
1590.6000, -69.926
1590.7000, -69.593
1590.8000, -69.301
1590.9000, -68.941
1591.0000, -68.588
1591.1000, -68.387
1591.2000, -68.122
1591.3000, -67.933
1591.4000, -67.619
1591.5000, -67.443
1591.6000, -67.251
1591.7000, -67.066
1591.8000, -66.848
1591.9000, -66.746
1592.0000, -66.596
1592.1000, -66.276
1592.2000, -66.222
1592.3000, -66.100
1592.4000, -65.959
1592.5000, -65.970
1592.6000, -65.827
1592.7000, -65.663
1592.8000, -65.716
1592.9000, -65.635
1593.0000, -65.642
1593.1000, -65.374
1593.2000, -65.397
1593.3000, -65.430
1593.4000, -65.307
1593.5000, -65.408
1593.6000, -65.366
1593.7000, -65.264
1593.8000, -65.303
1593.9000, -65.299
1594.0000, -65.335
1594.1000, -65.382
1594.2000, -65.466
1594.3000, -65.486
1594.4000, -65.557
1594.5000, -65.658
1594.6000, -65.686
1594.7000, -65.676
1594.8000, -65.770
1594.9000, -66.015
1595.0000, -66.034
1595.1000, -66.177
1595.2000, -66.265
1595.3000, -66.424
1595.4000, -66.470
1595.5000, -66.688
1595.6000, -66.713
1595.7000, -66.973
1595.8000, -67.139
1595.9000, -67.279
1596.0000, -67.355
1596.1000, -67.626
1596.2000, -67.692
1596.3000, -67.984
1596.4000, -68.257
1596.5000, -68.364
1596.6000, -68.664
1596.7000, -68.850
1596.8000, -68.986
1596.9000, -69.476
1597.0000, -69.656
1597.1000, -69.983
1597.2000, -70.305
1597.3000, -70.349
1597.4000, -71.102
1597.5000, -71.243
1597.6000, -71.361
1597.7000, -72.078
1597.8000, -72.351
1597.9000, -72.504
1598.0000, -72.801
1598.1000, -72.900
1598.2000, -74.088
1598.3000, -74.041
1598.4000, -75.132
1598.5000, -75.040
1598.6000, -75.301
1598.7000, -77.211
1598.8000, -76.528
1598.9000, -76.555
1599.0000, -77.152
1599.1000, -77.433
1599.2000, -76.740
1599.3000, -76.186
1599.4000, -77.197
1599.5000, -77.039
1599.6000, -77.522
1599.7000, -77.540
1599.8000, -75.763
1599.9000, -77.479
1600.0000, -75.915
1600.1000, -75.991
1600.2000, -75.276
1600.3000, -75.003
1600.4000, -74.261
1600.5000, -74.430
1600.6000, -73.415
1600.7000, -73.085
1600.8000, -72.763
1600.9000, -72.909
1601.0000, -72.379
1601.1000, -71.892
1601.2000, -71.867
1601.3000, -71.247
1601.4000, -71.464
1601.5000, -71.331
1601.6000, -71.016
1601.7000, -70.719
1601.8000, -70.498
1601.9000, -70.677
1602.0000, -70.323
1602.1000, -70.220
1602.2000, -69.934
1602.3000, -69.982
1602.4000, -69.687
1602.5000, -69.769
1602.6000, -69.366
1602.7000, -69.189
1602.8000, -69.356
1602.9000, -69.302
1603.0000, -69.240
1603.1000, -69.054
1603.2000, -69.120
1603.3000, -69.249
1603.4000, -69.041
1603.5000, -69.033
1603.6000, -69.090
1603.7000, -69.043
1603.8000, -69.109
1603.9000, -69.240
1604.0000, -69.012
1604.1000, -69.241
1604.2000, -69.156
1604.3000, -69.355
1604.4000, -69.513
1604.5000, -69.254
1604.6000, -69.481
1604.7000, -69.452
1604.8000, -69.667
1604.9000, -69.587
1605.0000, -70.006
1605.1000, -70.007
1605.2000, -70.186
1605.3000, -70.118
1605.4000, -70.328
1605.5000, -70.835
1605.6000, -70.649
1605.7000, -70.834
1605.8000, -71.391
1605.9000, -71.175
1606.0000, -71.141
1606.1000, -71.514
1606.2000, -71.802
1606.3000, -71.909
1606.4000, -72.073
1606.5000, -72.873
1606.6000, -72.782
1606.7000, -72.710
1606.8000, -73.108
1606.9000, -73.963
1607.0000, -73.871
1607.1000, -74.878
1607.2000, -74.514
1607.3000, -74.655
1607.4000, -75.625
1607.5000, -75.921
1607.6000, -76.770
1607.7000, -76.202
1607.8000, -76.725
1607.9000, -79.505
1608.0000, -77.865
1608.1000, -80.524
1608.2000, -78.512
1608.3000, -81.276
1608.4000, -79.935
1608.5000, -80.667
1608.6000, -85.032
1608.7000, -82.004
1608.8000, -80.026
1608.9000, -83.941
1609.0000, -83.223
1609.1000, -80.854
1609.2000, -82.924
1609.3000, -79.329
1609.4000, -90.511
1609.5000, -79.566
1609.6000, -78.560
1609.7000, -78.684
1609.8000, -79.143
1609.9000, -76.973
1610.0000, -77.733
1610.1000, -77.758
1610.2000, -77.048
1610.3000, -76.170
1610.4000, -76.163
1610.5000, -76.184
1610.6000, -75.107
1610.7000, -75.802
1610.8000, -74.152
1610.9000, -74.286
1611.0000, -74.949
1611.1000, -73.787
1611.2000, -74.331
1611.3000, -73.891
1611.4000, -73.021
1611.5000, -73.489
1611.6000, -73.216
1611.7000, -73.291
1611.8000, -72.407
1611.9000, -72.582
1612.0000, -72.181
1612.1000, -72.564
1612.2000, -72.262
1612.3000, -72.050
1612.4000, -72.004
1612.5000, -71.713
1612.6000, -71.611
1612.7000, -71.800
1612.8000, -71.781
1612.9000, -71.823
1613.0000, -71.635
1613.1000, -71.602
1613.2000, -71.452
1613.3000, -71.450
1613.4000, -71.927
1613.5000, -71.479
1613.6000, -71.661
1613.7000, -71.714
1613.8000, -71.142
1613.9000, -71.720
1614.0000, -71.595
1614.1000, -71.749
1614.2000, -71.773
1614.3000, -72.095
1614.4000, -71.817
1614.5000, -71.955
1614.6000, -72.313
1614.7000, -72.101
1614.8000, -72.990
1614.9000, -72.779
1615.0000, -72.549
1615.1000, -73.126
1615.2000, -73.419
1615.3000, -73.691
1615.4000, -73.376
1615.5000, -74.207
1615.6000, -73.642
1615.7000, -74.659
1615.8000, -74.844
1615.9000, -75.182
1616.0000, -75.751
1616.1000, -75.229
1616.2000, -75.390
1616.3000, -76.367
1616.4000, -77.261
1616.5000, -76.476
1616.6000, -77.035
1616.7000, -77.510
1616.8000, -77.152
1616.9000, -77.254
1617.0000, -78.908
1617.1000, -79.325
1617.2000, -78.730
1617.3000, -80.062
1617.4000, -83.308
1617.5000, -79.298
1617.6000, -84.038
1617.7000, -82.991
1617.8000, -84.789
1617.9000, -83.709
1618.0000, -85.931
1618.1000, -84.004
1618.2000, -82.794
1618.3000,-210.000
1618.4000, -81.922
1618.5000,-210.000
1618.6000, -94.866
1618.7000,-210.000
1618.8000, -83.485
1618.9000, -81.224
1619.0000,-210.000
1619.1000,-210.000
1619.2000, -82.190
1619.3000, -82.605
1619.4000,-100.075
1619.5000, -87.714
1619.6000, -78.267
1619.7000,-210.000
1619.8000, -81.673
1619.9000, -81.497
1620.0000, -78.872
