70BCSV 	
// AQ6370B OPTICAL SPECTRUM ANALYZER //                 
25
"CTRWL",1560.000000
"SPAN", 120.000000
"START WL",1500.000000
"STOP WL",1620.000000
"WLFREQ", 0
"REFL",-38.6
"LSCL", 6.0
"RESLN",0.500
"AVG",   1
"SMPLAUTO",      1
"SMPL",       1201
"SMPLINTVL",0.1000
"HIGH1"
"MEAS"
"LSUNT",0
"NMSKH","OFF"
"RESCOR",0
"RESPARM", 9740
"FREQPARM", 9740






"[TRACE DATA]"
1500.0000, -69.799
1500.1000, -69.563
1500.2000, -69.659
1500.3000, -69.595
1500.4000, -69.494
1500.5000, -69.290
1500.6000, -69.338
1500.7000, -69.268
1500.8000, -69.181
1500.9000, -69.291
1501.0000, -69.040
1501.1000, -69.164
1501.2000, -69.436
1501.3000, -69.315
1501.4000, -69.418
1501.5000, -69.299
1501.6000, -69.348
1501.7000, -69.384
1501.8000, -69.649
1501.9000, -69.872
1502.0000, -69.882
1502.1000, -69.994
1502.2000, -70.348
1502.3000, -70.572
1502.4000, -70.899
1502.5000, -71.063
1502.6000, -71.640
1502.7000, -71.745
1502.8000, -71.997
1502.9000, -72.736
1503.0000, -72.774
1503.1000, -73.844
1503.2000, -74.059
1503.3000, -74.910
1503.4000, -74.602
1503.5000, -75.964
1503.6000, -76.752
1503.7000, -77.440
1503.8000, -77.760
1503.9000, -79.322
1504.0000, -82.055
1504.1000, -80.994
1504.2000, -81.290
1504.3000, -81.898
1504.4000, -80.874
1504.5000, -80.016
1504.6000, -80.239
1504.7000, -81.523
1504.8000, -79.857
1504.9000, -78.041
1505.0000, -76.879
1505.1000, -75.676
1505.2000, -75.617
1505.3000, -74.841
1505.4000, -73.848
1505.5000, -72.978
1505.6000, -72.872
1505.7000, -72.556
1505.8000, -71.688
1505.9000, -71.121
1506.0000, -70.932
1506.1000, -70.371
1506.2000, -70.150
1506.3000, -69.673
1506.4000, -69.389
1506.5000, -68.978
1506.6000, -68.653
1506.7000, -68.459
1506.8000, -68.162
1506.9000, -67.990
1507.0000, -67.655
1507.1000, -67.392
1507.2000, -67.175
1507.3000, -67.018
1507.4000, -66.816
1507.5000, -66.644
1507.6000, -66.471
1507.7000, -66.240
1507.8000, -66.172
1507.9000, -66.005
1508.0000, -65.918
1508.1000, -65.816
1508.2000, -65.681
1508.3000, -65.500
1508.4000, -65.405
1508.5000, -65.427
1508.6000, -65.369
1508.7000, -65.284
1508.8000, -65.261
1508.9000, -65.289
1509.0000, -65.287
1509.1000, -65.358
1509.2000, -65.339
1509.3000, -65.419
1509.4000, -65.472
1509.5000, -65.605
1509.6000, -65.768
1509.7000, -65.872
1509.8000, -66.035
1509.9000, -66.193
1510.0000, -66.433
1510.1000, -66.694
1510.2000, -66.793
1510.3000, -67.131
1510.4000, -67.423
1510.5000, -67.691
1510.6000, -68.214
1510.7000, -68.376
1510.8000, -68.781
1510.9000, -69.105
1511.0000, -69.920
1511.1000, -70.105
1511.2000, -70.666
1511.3000, -71.065
1511.4000, -71.781
1511.5000, -71.798
1511.6000, -73.089
1511.7000, -73.528
1511.8000, -73.145
1511.9000, -73.223
1512.0000, -73.727
1512.1000, -73.476
1512.2000, -73.309
1512.3000, -73.293
1512.4000, -72.175
1512.5000, -71.991
1512.6000, -71.217
1512.7000, -70.605
1512.8000, -69.871
1512.9000, -69.432
1513.0000, -68.729
1513.1000, -68.217
1513.2000, -67.649
1513.3000, -67.116
1513.4000, -66.590
1513.5000, -66.031
1513.6000, -65.707
1513.7000, -65.240
1513.8000, -64.837
1513.9000, -64.404
1514.0000, -64.039
1514.1000, -63.738
1514.2000, -63.394
1514.3000, -63.071
1514.4000, -62.825
1514.5000, -62.607
1514.6000, -62.358
1514.7000, -62.153
1514.8000, -61.968
1514.9000, -61.741
1515.0000, -61.594
1515.1000, -61.418
1515.2000, -61.253
1515.3000, -61.089
1515.4000, -60.974
1515.5000, -60.825
1515.6000, -60.715
1515.7000, -60.583
1515.8000, -60.500
1515.9000, -60.405
1516.0000, -60.346
1516.1000, -60.287
1516.2000, -60.231
1516.3000, -60.215
1516.4000, -60.189
1516.5000, -60.165
1516.6000, -60.202
1516.7000, -60.193
1516.8000, -60.219
1516.9000, -60.269
1517.0000, -60.328
1517.1000, -60.393
1517.2000, -60.480
1517.3000, -60.551
1517.4000, -60.664
1517.5000, -60.785
1517.6000, -60.942
1517.7000, -61.116
1517.8000, -61.266
1517.9000, -61.484
1518.0000, -61.674
1518.1000, -61.893
1518.2000, -62.110
1518.3000, -62.341
1518.4000, -62.535
1518.5000, -62.793
1518.6000, -63.071
1518.7000, -63.298
1518.8000, -63.578
1518.9000, -63.709
1519.0000, -63.934
1519.1000, -64.158
1519.2000, -64.106
1519.3000, -64.140
1519.4000, -64.014
1519.5000, -63.901
1519.6000, -63.716
1519.7000, -63.462
1519.8000, -63.127
1519.9000, -62.737
1520.0000, -62.197
1520.1000, -61.668
1520.2000, -61.063
1520.3000, -60.471
1520.4000, -59.865
1520.5000, -59.237
1520.6000, -58.641
1520.7000, -58.033
1520.8000, -57.427
1520.9000, -56.812
1521.0000, -56.204
1521.1000, -55.623
1521.2000, -55.054
1521.3000, -54.490
1521.4000, -53.983
1521.5000, -53.465
1521.6000, -52.956
1521.7000, -52.460
1521.8000, -51.967
1521.9000, -51.487
1522.0000, -51.044
1522.1000, -50.602
1522.2000, -50.185
1522.3000, -49.778
1522.4000, -49.382
1522.5000, -49.009
1522.6000, -48.640
1522.7000, -48.292
1522.8000, -47.955
1522.9000, -47.626
1523.0000, -47.294
1523.1000, -46.970
1523.2000, -46.655
1523.3000, -46.344
1523.4000, -46.041
1523.5000, -45.754
1523.6000, -45.481
1523.7000, -45.219
1523.8000, -44.963
1523.9000, -44.724
1524.0000, -44.485
1524.1000, -44.245
1524.2000, -44.034
1524.3000, -43.827
1524.4000, -43.629
1524.5000, -43.445
1524.6000, -43.274
1524.7000, -43.119
1524.8000, -42.977
1524.9000, -42.849
1525.0000, -42.728
1525.1000, -42.620
1525.2000, -42.533
1525.3000, -42.472
1525.4000, -42.424
1525.5000, -42.375
1525.6000, -42.333
1525.7000, -42.303
1525.8000, -42.281
1525.9000, -42.288
1526.0000, -42.329
1526.1000, -42.400
1526.2000, -42.521
1526.3000, -42.631
1526.4000, -42.773
1526.5000, -42.895
1526.6000, -43.043
1526.7000, -43.200
1526.8000, -43.365
1526.9000, -43.558
1527.0000, -43.783
1527.1000, -44.040
1527.2000, -44.324
1527.3000, -44.634
1527.4000, -44.987
1527.5000, -45.355
1527.6000, -45.709
1527.7000, -46.070
1527.8000, -46.438
1527.9000, -46.805
1528.0000, -47.192
1528.1000, -47.606
1528.2000, -48.037
1528.3000, -48.438
1528.4000, -48.777
1528.5000, -49.062
1528.6000, -49.257
1528.7000, -49.298
1528.8000, -49.206
1528.9000, -48.918
1529.0000, -48.462
1529.1000, -47.873
1529.2000, -47.166
1529.3000, -46.447
1529.4000, -45.703
1529.5000, -45.059
1529.6000, -44.411
1529.7000, -43.804
1529.8000, -43.215
1529.9000, -42.655
1530.0000, -42.142
1530.1000, -41.636
1530.2000, -41.201
1530.3000, -40.779
1530.4000, -40.376
1530.5000, -39.996
1530.6000, -39.638
1530.7000, -39.309
1530.8000, -39.007
1530.9000, -38.739
1531.0000, -38.494
1531.1000, -38.276
1531.2000, -38.103
1531.3000, -37.943
1531.4000, -37.837
1531.5000, -37.733
1531.6000, -37.690
1531.7000, -37.677
1531.8000, -37.668
1531.9000, -37.697
1532.0000, -37.747
1532.1000, -37.820
1532.2000, -37.872
1532.3000, -37.982
1532.4000, -38.110
1532.5000, -38.260
1532.6000, -38.455
1532.7000, -38.691
1532.8000, -38.963
1532.9000, -39.260
1533.0000, -39.610
1533.1000, -40.005
1533.2000, -40.467
1533.3000, -40.952
1533.4000, -41.454
1533.5000, -41.980
1533.6000, -42.556
1533.7000, -43.125
1533.8000, -43.705
1533.9000, -44.331
1534.0000, -44.952
1534.1000, -45.609
1534.2000, -46.292
1534.3000, -47.012
1534.4000, -47.681
1534.5000, -48.318
1534.6000, -48.885
1534.7000, -49.368
1534.8000, -49.729
1534.9000, -49.967
1535.0000, -50.047
1535.1000, -50.027
1535.2000, -49.929
1535.3000, -49.770
1535.4000, -49.568
1535.5000, -49.324
1535.6000, -49.042
1535.7000, -48.800
1535.8000, -48.539
1535.9000, -48.304
1536.0000, -48.078
1536.1000, -47.878
1536.2000, -47.673
1536.3000, -47.454
1536.4000, -47.258
1536.5000, -47.083
1536.6000, -46.948
1536.7000, -46.829
1536.8000, -46.729
1536.9000, -46.663
1537.0000, -46.573
1537.1000, -46.448
1537.2000, -46.328
1537.3000, -46.215
1537.4000, -46.092
1537.5000, -45.983
1537.6000, -45.890
1537.7000, -45.804
1537.8000, -45.714
1537.9000, -45.631
1538.0000, -45.575
1538.1000, -45.520
1538.2000, -45.477
1538.3000, -45.444
1538.4000, -45.411
1538.5000, -45.387
1538.6000, -45.363
1538.7000, -45.351
1538.8000, -45.339
1538.9000, -45.325
1539.0000, -45.348
1539.1000, -45.369
1539.2000, -45.396
1539.3000, -45.418
1539.4000, -45.433
1539.5000, -45.465
1539.6000, -45.510
1539.7000, -45.580
1539.8000, -45.667
1539.9000, -45.759
1540.0000, -45.858
1540.1000, -45.974
1540.2000, -46.095
1540.3000, -46.228
1540.4000, -46.364
1540.5000, -46.527
1540.6000, -46.706
1540.7000, -46.900
1540.8000, -47.103
1540.9000, -47.325
1541.0000, -47.560
1541.1000, -47.797
1541.2000, -48.051
1541.3000, -48.311
1541.4000, -48.597
1541.5000, -48.935
1541.6000, -49.293
1541.7000, -49.687
1541.8000, -50.099
1541.9000, -50.513
1542.0000, -50.972
1542.1000, -51.434
1542.2000, -51.905
1542.3000, -52.403
1542.4000, -52.906
1542.5000, -53.409
1542.6000, -53.904
1542.7000, -54.351
1542.8000, -54.725
1542.9000, -55.033
1543.0000, -55.286
1543.1000, -55.463
1543.2000, -55.531
1543.3000, -55.492
1543.4000, -55.321
1543.5000, -55.063
1543.6000, -54.715
1543.7000, -54.310
1543.8000, -53.857
1543.9000, -53.362
1544.0000, -52.870
1544.1000, -52.374
1544.2000, -51.915
1544.3000, -51.475
1544.4000, -51.069
1544.5000, -50.663
1544.6000, -50.275
1544.7000, -49.882
1544.8000, -49.501
1544.9000, -49.124
1545.0000, -48.766
1545.1000, -48.429
1545.2000, -48.103
1545.3000, -47.795
1545.4000, -47.516
1545.5000, -47.245
1545.6000, -46.969
1545.7000, -46.721
1545.8000, -46.479
1545.9000, -46.252
1546.0000, -46.035
1546.1000, -45.823
1546.2000, -45.630
1546.3000, -45.461
1546.4000, -45.303
1546.5000, -45.139
1546.6000, -45.003
1546.7000, -44.856
1546.8000, -44.733
1546.9000, -44.629
1547.0000, -44.540
1547.1000, -44.455
1547.2000, -44.384
1547.3000, -44.329
1547.4000, -44.281
1547.5000, -44.253
1547.6000, -44.233
1547.7000, -44.234
1547.8000, -44.239
1547.9000, -44.265
1548.0000, -44.300
1548.1000, -44.343
1548.2000, -44.389
1548.3000, -44.435
1548.4000, -44.492
1548.5000, -44.561
1548.6000, -44.648
1548.7000, -44.750
1548.8000, -44.859
1548.9000, -44.983
1549.0000, -45.143
1549.1000, -45.322
1549.2000, -45.507
1549.3000, -45.712
1549.4000, -45.945
1549.5000, -46.187
1549.6000, -46.462
1549.7000, -46.746
1549.8000, -47.081
1549.9000, -47.447
1550.0000, -47.817
1550.1000, -48.210
1550.2000, -48.609
1550.3000, -49.034
1550.4000, -49.491
1550.5000, -49.990
1550.6000, -50.551
1550.7000, -51.117
1550.8000, -51.722
1550.9000, -52.410
1551.0000, -53.097
1551.1000, -53.762
1551.2000, -54.434
1551.3000, -55.077
1551.4000, -55.664
1551.5000, -56.124
1551.6000, -56.407
1551.7000, -56.475
1551.8000, -56.356
1551.9000, -56.031
1552.0000, -55.585
1552.1000, -55.027
1552.2000, -54.403
1552.3000, -53.739
1552.4000, -53.094
1552.5000, -52.457
1552.6000, -51.873
1552.7000, -51.327
1552.8000, -50.801
1552.9000, -50.288
1553.0000, -49.804
1553.1000, -49.341
1553.2000, -48.897
1553.3000, -48.484
1553.4000, -48.110
1553.5000, -47.786
1553.6000, -47.459
1553.7000, -47.192
1553.8000, -46.909
1553.9000, -46.644
1554.0000, -46.380
1554.1000, -46.125
1554.2000, -45.891
1554.3000, -45.675
1554.4000, -45.486
1554.5000, -45.304
1554.6000, -45.144
1554.7000, -44.999
1554.8000, -44.860
1554.9000, -44.736
1555.0000, -44.612
1555.1000, -44.501
1555.2000, -44.403
1555.3000, -44.319
1555.4000, -44.242
1555.5000, -44.171
1555.6000, -44.109
1555.7000, -44.048
1555.8000, -44.000
1555.9000, -43.950
1556.0000, -43.914
1556.1000, -43.897
1556.2000, -43.894
1556.3000, -43.888
1556.4000, -43.883
1556.5000, -43.871
1556.6000, -43.887
1556.7000, -43.903
1556.8000, -43.940
1556.9000, -43.988
1557.0000, -44.048
1557.1000, -44.119
1557.2000, -44.191
1557.3000, -44.271
1557.4000, -44.367
1557.5000, -44.471
1557.6000, -44.584
1557.7000, -44.693
1557.8000, -44.807
1557.9000, -44.932
1558.0000, -45.060
1558.1000, -45.202
1558.2000, -45.346
1558.3000, -45.510
1558.4000, -45.681
1558.5000, -45.857
1558.6000, -46.037
1558.7000, -46.217
1558.8000, -46.411
1558.9000, -46.620
1559.0000, -46.832
1559.1000, -47.069
1559.2000, -47.321
1559.3000, -47.585
1559.4000, -47.845
1559.5000, -48.107
1559.6000, -48.385
1559.7000, -48.677
1559.8000, -48.983
1559.9000, -49.300
1560.0000, -49.613
1560.1000, -49.926
1560.2000, -50.233
1560.3000, -50.540
1560.4000, -50.823
1560.5000, -51.119
1560.6000, -51.397
1560.7000, -51.658
1560.8000, -51.907
1560.9000, -52.132
1561.0000, -52.325
1561.1000, -52.516
1561.2000, -52.687
1561.3000, -52.839
1561.4000, -52.961
1561.5000, -53.043
1561.6000, -53.079
1561.7000, -53.089
1561.8000, -53.077
1561.9000, -53.030
1562.0000, -52.968
1562.1000, -52.901
1562.2000, -52.832
1562.3000, -52.767
1562.4000, -52.690
1562.5000, -52.616
1562.6000, -52.545
1562.7000, -52.485
1562.8000, -52.412
1562.9000, -52.326
1563.0000, -52.262
1563.1000, -52.188
1563.2000, -52.112
1563.3000, -52.038
1563.4000, -51.950
1563.5000, -51.860
1563.6000, -51.774
1563.7000, -51.689
1563.8000, -51.610
1563.9000, -51.541
1564.0000, -51.470
1564.1000, -51.417
1564.2000, -51.370
1564.3000, -51.329
1564.4000, -51.302
1564.5000, -51.282
1564.6000, -51.275
1564.7000, -51.266
1564.8000, -51.239
1564.9000, -51.205
1565.0000, -51.168
1565.1000, -51.145
1565.2000, -51.098
1565.3000, -51.065
1565.4000, -51.035
1565.5000, -51.022
1565.6000, -51.018
1565.7000, -51.014
1565.8000, -51.021
1565.9000, -51.032
1566.0000, -51.052
1566.1000, -51.077
1566.2000, -51.103
1566.3000, -51.114
1566.4000, -51.148
1566.5000, -51.177
1566.6000, -51.219
1566.7000, -51.270
1566.8000, -51.342
1566.9000, -51.421
1567.0000, -51.509
1567.1000, -51.607
1567.2000, -51.711
1567.3000, -51.831
1567.4000, -51.960
1567.5000, -52.089
1567.6000, -52.231
1567.7000, -52.378
1567.8000, -52.516
1567.9000, -52.672
1568.0000, -52.835
1568.1000, -53.004
1568.2000, -53.179
1568.3000, -53.336
1568.4000, -53.496
1568.5000, -53.654
1568.6000, -53.811
1568.7000, -53.978
1568.8000, -54.150
1568.9000, -54.346
1569.0000, -54.564
1569.1000, -54.781
1569.2000, -54.986
1569.3000, -55.185
1569.4000, -55.396
1569.5000, -55.612
1569.6000, -55.833
1569.7000, -56.044
1569.8000, -56.282
1569.9000, -56.521
1570.0000, -56.765
1570.1000, -57.016
1570.2000, -57.275
1570.3000, -57.523
1570.4000, -57.794
1570.5000, -58.059
1570.6000, -58.363
1570.7000, -58.663
1570.8000, -58.975
1570.9000, -59.284
1571.0000, -59.607
1571.1000, -59.961
1571.2000, -60.304
1571.3000, -60.644
1571.4000, -61.056
1571.5000, -61.458
1571.6000, -61.864
1571.7000, -62.266
1571.8000, -62.701
1571.9000, -63.122
1572.0000, -63.584
1572.1000, -64.101
1572.2000, -64.590
1572.3000, -65.107
1572.4000, -65.631
1572.5000, -66.194
1572.6000, -66.745
1572.7000, -67.404
1572.8000, -68.014
1572.9000, -68.749
1573.0000, -69.085
1573.1000, -69.814
1573.2000, -70.532
1573.3000, -71.479
1573.4000, -72.233
1573.5000, -72.490
1573.6000, -73.287
1573.7000, -73.941
1573.8000, -75.117
1573.9000, -75.698
1574.0000, -76.133
1574.1000, -75.477
1574.2000, -76.229
1574.3000, -77.296
1574.4000, -76.686
1574.5000, -76.101
1574.6000, -75.713
1574.7000, -75.587
1574.8000, -74.709
1574.9000, -74.402
1575.0000, -73.666
1575.1000, -73.822
1575.2000, -72.402
1575.3000, -72.048
1575.4000, -72.077
1575.5000, -71.164
1575.6000, -70.878
1575.7000, -70.456
1575.8000, -70.128
1575.9000, -69.785
1576.0000, -69.506
1576.1000, -69.455
1576.2000, -69.082
1576.3000, -68.924
1576.4000, -68.647
1576.5000, -68.399
1576.6000, -68.403
1576.7000, -68.158
1576.8000, -68.025
1576.9000, -67.942
1577.0000, -67.901
1577.1000, -67.803
1577.2000, -67.683
1577.3000, -67.621
1577.4000, -67.579
1577.5000, -67.314
1577.6000, -67.401
1577.7000, -67.425
1577.8000, -67.345
1577.9000, -67.322
1578.0000, -67.362
1578.1000, -67.267
1578.2000, -67.388
1578.3000, -67.331
1578.4000, -67.412
1578.5000, -67.506
1578.6000, -67.516
1578.7000, -67.626
1578.8000, -67.540
1578.9000, -67.527
1579.0000, -67.620
1579.1000, -67.652
1579.2000, -67.667
1579.3000, -67.647
1579.4000, -67.801
1579.5000, -67.865
1579.6000, -67.895
1579.7000, -67.995
1579.8000, -68.337
1579.9000, -68.181
1580.0000, -68.335
1580.1000, -68.569
1580.2000, -68.612
1580.3000, -68.719
1580.4000, -68.816
1580.5000, -68.880
1580.6000, -68.935
1580.7000, -69.077
1580.8000, -69.210
1580.9000, -69.161
1581.0000, -69.229
1581.1000, -69.436
1581.2000, -69.444
1581.3000, -69.602
1581.4000, -69.441
1581.5000, -69.584
1581.6000, -69.600
1581.7000, -69.581
1581.8000, -69.682
1581.9000, -69.826
1582.0000, -69.634
1582.1000, -69.916
1582.2000, -69.705
1582.3000, -69.536
1582.4000, -69.630
1582.5000, -69.496
1582.6000, -69.498
1582.7000, -69.219
1582.8000, -69.181
1582.9000, -68.913
1583.0000, -69.010
1583.1000, -68.837
1583.2000, -68.731
1583.3000, -68.654
1583.4000, -68.549
1583.5000, -68.334
1583.6000, -68.265
1583.7000, -68.147
1583.8000, -68.082
1583.9000, -67.977
1584.0000, -67.952
1584.1000, -67.609
1584.2000, -67.608
1584.3000, -67.498
1584.4000, -67.271
1584.5000, -67.275
1584.6000, -67.136
1584.7000, -67.002
1584.8000, -66.811
1584.9000, -66.714
1585.0000, -66.561
1585.1000, -66.510
1585.2000, -66.502
1585.3000, -66.257
1585.4000, -66.220
1585.5000, -66.129
1585.6000, -65.947
1585.7000, -66.061
1585.8000, -65.698
1585.9000, -65.795
1586.0000, -65.684
1586.1000, -65.668
1586.2000, -65.494
1586.3000, -65.476
1586.4000, -65.464
1586.5000, -65.513
1586.6000, -65.412
1586.7000, -65.364
1586.8000, -65.302
1586.9000, -65.265
1587.0000, -65.302
1587.1000, -65.321
1587.2000, -65.313
1587.3000, -65.215
1587.4000, -65.334
1587.5000, -65.446
1587.6000, -65.415
1587.7000, -65.507
1587.8000, -65.529
1587.9000, -65.689
1588.0000, -65.782
1588.1000, -65.825
1588.2000, -65.818
1588.3000, -66.017
1588.4000, -66.135
1588.5000, -66.226
1588.6000, -66.355
1588.7000, -66.485
1588.8000, -66.625
1588.9000, -66.778
1589.0000, -66.866
1589.1000, -67.144
1589.2000, -67.289
1589.3000, -67.407
1589.4000, -67.627
1589.5000, -67.722
1589.6000, -68.065
1589.7000, -68.230
1589.8000, -68.419
1589.9000, -68.720
1590.0000, -69.030
1590.1000, -69.236
1590.2000, -69.341
1590.3000, -69.657
1590.4000, -70.344
1590.5000, -70.576
1590.6000, -70.893
1590.7000, -71.488
1590.8000, -71.245
1590.9000, -71.960
1591.0000, -72.477
1591.1000, -72.768
1591.2000, -73.973
1591.3000, -74.096
1591.4000, -74.966
1591.5000, -75.839
1591.6000, -75.927
1591.7000, -75.969
1591.8000, -76.622
1591.9000, -78.047
1592.0000, -78.835
1592.1000, -78.896
1592.2000, -82.098
1592.3000, -81.518
1592.4000, -82.258
1592.5000, -81.590
1592.6000, -97.401
1592.7000, -82.559
1592.8000, -85.758
1592.9000, -80.176
1593.0000, -81.379
1593.1000, -84.685
1593.2000, -83.047
1593.3000, -78.799
1593.4000, -79.355
1593.5000, -78.519
1593.6000, -78.286
1593.7000, -77.092
1593.8000, -76.495
1593.9000, -76.530
1594.0000, -75.670
1594.1000, -75.385
1594.2000, -75.274
1594.3000, -74.171
1594.4000, -74.512
1594.5000, -73.821
1594.6000, -73.906
1594.7000, -73.483
1594.8000, -73.068
1594.9000, -73.177
1595.0000, -72.662
1595.1000, -72.530
1595.2000, -72.292
1595.3000, -71.972
1595.4000, -71.875
1595.5000, -71.363
1595.6000, -71.637
1595.7000, -71.870
1595.8000, -71.145
1595.9000, -71.370
1596.0000, -71.117
1596.1000, -70.705
1596.2000, -70.808
1596.3000, -70.969
1596.4000, -70.889
1596.5000, -70.616
1596.6000, -70.792
1596.7000, -70.268
1596.8000, -70.529
1596.9000, -70.263
1597.0000, -70.273
1597.1000, -70.381
1597.2000, -70.242
1597.3000, -70.098
1597.4000, -70.339
1597.5000, -70.109
1597.6000, -70.274
1597.7000, -70.211
1597.8000, -70.478
1597.9000, -70.322
1598.0000, -70.374
1598.1000, -70.432
1598.2000, -70.353
1598.3000, -70.504
1598.4000, -70.609
1598.5000, -70.466
1598.6000, -70.708
1598.7000, -70.720
1598.8000, -70.814
1598.9000, -70.829
1599.0000, -71.094
1599.1000, -71.103
1599.2000, -71.129
1599.3000, -71.204
1599.4000, -71.460
1599.5000, -71.728
1599.6000, -71.700
1599.7000, -71.755
1599.8000, -71.939
1599.9000, -72.114
1600.0000, -72.243
1600.1000, -72.208
1600.2000, -72.325
1600.3000, -72.637
1600.4000, -72.681
1600.5000, -73.098
1600.6000, -72.924
1600.7000, -73.284
1600.8000, -73.007
1600.9000, -73.482
1601.0000, -73.494
1601.1000, -73.602
1601.2000, -73.126
1601.3000, -73.849
1601.4000, -74.075
1601.5000, -73.932
1601.6000, -73.413
1601.7000, -73.786
1601.8000, -73.845
1601.9000, -74.061
1602.0000, -73.978
1602.1000, -73.814
1602.2000, -73.704
1602.3000, -73.445
1602.4000, -73.176
1602.5000, -73.632
1602.6000, -73.227
1602.7000, -73.372
1602.8000, -73.325
1602.9000, -73.234
1603.0000, -72.812
1603.1000, -72.797
1603.2000, -73.085
1603.3000, -73.109
1603.4000, -72.629
1603.5000, -72.429
1603.6000, -72.567
1603.7000, -72.429
1603.8000, -72.222
1603.9000, -72.365
1604.0000, -72.098
1604.1000, -72.138
1604.2000, -71.997
1604.3000, -72.163
1604.4000, -72.062
1604.5000, -72.047
1604.6000, -71.876
1604.7000, -71.691
1604.8000, -71.740
1604.9000, -71.575
1605.0000, -71.611
1605.1000, -71.633
1605.2000, -71.532
1605.3000, -71.633
1605.4000, -71.596
1605.5000, -72.101
1605.6000, -71.769
1605.7000, -71.950
1605.8000, -71.489
1605.9000, -71.558
1606.0000, -71.922
1606.1000, -71.629
1606.2000, -72.078
1606.3000, -72.050
1606.4000, -71.982
1606.5000, -72.360
1606.6000, -72.375
1606.7000, -72.474
1606.8000, -72.332
1606.9000, -72.374
1607.0000, -72.225
1607.1000, -72.889
1607.2000, -72.791
1607.3000, -72.642
1607.4000, -72.670
1607.5000, -72.712
1607.6000, -73.304
1607.7000, -72.832
1607.8000, -73.525
1607.9000, -73.523
1608.0000, -74.200
1608.1000, -74.571
1608.2000, -73.787
1608.3000, -74.774
1608.4000, -74.220
1608.5000, -75.009
1608.6000, -75.434
1608.7000, -75.580
1608.8000, -75.820
1608.9000, -76.369
1609.0000, -76.248
1609.1000, -75.774
1609.2000, -76.318
1609.3000, -77.558
1609.4000, -77.084
1609.5000, -76.918
1609.6000, -78.671
1609.7000, -79.306
1609.8000, -78.102
1609.9000, -78.927
1610.0000, -81.290
1610.1000, -78.711
1610.2000, -79.149
1610.3000, -78.541
1610.4000, -81.321
1610.5000, -79.943
1610.6000, -79.604
1610.7000, -82.101
1610.8000, -78.957
1610.9000, -80.506
1611.0000, -79.100
1611.1000, -79.656
1611.2000, -80.258
1611.3000, -77.626
1611.4000, -77.294
1611.5000, -78.839
1611.6000, -77.535
1611.7000, -78.999
1611.8000, -77.235
1611.9000, -75.978
1612.0000, -76.408
1612.1000, -76.900
1612.2000, -76.503
1612.3000, -76.701
1612.4000, -75.998
1612.5000, -76.253
1612.6000, -74.954
1612.7000, -75.742
1612.8000, -75.287
1612.9000, -74.244
1613.0000, -74.027
1613.1000, -74.856
1613.2000, -74.501
1613.3000, -73.749
1613.4000, -74.236
1613.5000, -73.731
1613.6000, -74.035
1613.7000, -74.050
1613.8000, -73.915
1613.9000, -73.010
1614.0000, -73.346
1614.1000, -74.008
1614.2000, -73.344
1614.3000, -73.659
1614.4000, -73.466
1614.5000, -73.685
1614.6000, -73.446
1614.7000, -73.263
1614.8000, -73.710
1614.9000, -73.864
1615.0000, -73.976
1615.1000, -73.781
1615.2000, -73.302
1615.3000, -73.576
1615.4000, -74.016
1615.5000, -74.370
1615.6000, -74.564
1615.7000, -73.869
1615.8000, -74.542
1615.9000, -74.396
1616.0000, -74.800
1616.1000, -74.659
1616.2000, -75.073
1616.3000, -76.175
1616.4000, -75.381
1616.5000, -76.025
1616.6000, -75.940
1616.7000, -75.607
1616.8000, -76.553
1616.9000, -77.704
1617.0000, -76.854
1617.1000, -76.771
1617.2000, -77.840
1617.3000, -76.958
1617.4000, -76.695
1617.5000, -80.927
1617.6000, -77.954
1617.7000, -78.875
1617.8000, -78.466
1617.9000, -79.329
1618.0000, -80.300
1618.1000, -82.236
1618.2000, -80.870
1618.3000, -80.456
1618.4000, -81.034
1618.5000, -86.296
1618.6000, -80.097
1618.7000, -82.399
1618.8000, -87.316
1618.9000, -82.085
1619.0000, -84.651
1619.1000, -83.087
1619.2000, -89.475
1619.3000,-100.260
1619.4000, -86.200
1619.5000, -83.915
1619.6000, -86.263
1619.7000, -83.426
1619.8000, -85.748
1619.9000,-210.000
1620.0000, -86.228
