70BCSV 	
// AQ6370B OPTICAL SPECTRUM ANALYZER //                 
25
"CTRWL",1560.000000
"SPAN", 120.000000
"START WL",1500.000000
"STOP WL",1620.000000
"WLFREQ", 0
"REFL",-38.6
"LSCL", 6.0
"RESLN",0.500
"AVG",   1
"SMPLAUTO",      1
"SMPL",       1201
"SMPLINTVL",0.1000
"HIGH1"
"MEAS"
"LSUNT",0
"NMSKH","OFF"
"RESCOR",0
"RESPARM", 9740
"FREQPARM", 9740






"[TRACE DATA]"
1500.0000, -78.257
1500.1000, -78.628
1500.2000, -78.086
1500.3000, -76.848
1500.4000, -76.737
1500.5000, -76.444
1500.6000, -75.200
1500.7000, -74.483
1500.8000, -74.585
1500.9000, -74.118
1501.0000, -73.608
1501.1000, -72.870
1501.2000, -72.762
1501.3000, -72.477
1501.4000, -71.751
1501.5000, -71.500
1501.6000, -71.423
1501.7000, -70.903
1501.8000, -70.556
1501.9000, -70.372
1502.0000, -69.913
1502.1000, -69.777
1502.2000, -69.508
1502.3000, -69.426
1502.4000, -69.215
1502.5000, -68.907
1502.6000, -68.891
1502.7000, -68.629
1502.8000, -68.626
1502.9000, -68.341
1503.0000, -68.409
1503.1000, -68.202
1503.2000, -68.102
1503.3000, -68.029
1503.4000, -68.094
1503.5000, -68.017
1503.6000, -68.070
1503.7000, -68.013
1503.8000, -68.011
1503.9000, -68.007
1504.0000, -68.059
1504.1000, -68.137
1504.2000, -68.224
1504.3000, -68.158
1504.4000, -68.367
1504.5000, -68.348
1504.6000, -68.541
1504.7000, -68.697
1504.8000, -68.731
1504.9000, -68.932
1505.0000, -68.887
1505.1000, -69.053
1505.2000, -69.420
1505.3000, -69.411
1505.4000, -69.816
1505.5000, -69.872
1505.6000, -70.018
1505.7000, -70.247
1505.8000, -70.580
1505.9000, -70.804
1506.0000, -71.009
1506.1000, -71.270
1506.2000, -71.593
1506.3000, -71.912
1506.4000, -72.191
1506.5000, -72.345
1506.6000, -72.592
1506.7000, -72.506
1506.8000, -72.952
1506.9000, -72.708
1507.0000, -73.418
1507.1000, -72.893
1507.2000, -73.628
1507.3000, -73.580
1507.4000, -73.694
1507.5000, -73.616
1507.6000, -73.672
1507.7000, -73.145
1507.8000, -72.592
1507.9000, -72.891
1508.0000, -72.170
1508.1000, -72.014
1508.2000, -71.627
1508.3000, -70.957
1508.4000, -70.530
1508.5000, -70.219
1508.6000, -69.632
1508.7000, -69.149
1508.8000, -68.631
1508.9000, -68.173
1509.0000, -67.641
1509.1000, -67.158
1509.2000, -66.760
1509.3000, -66.360
1509.4000, -65.884
1509.5000, -65.575
1509.6000, -65.117
1509.7000, -64.763
1509.8000, -64.486
1509.9000, -64.141
1510.0000, -63.819
1510.1000, -63.450
1510.2000, -63.224
1510.3000, -62.907
1510.4000, -62.657
1510.5000, -62.430
1510.6000, -62.185
1510.7000, -61.939
1510.8000, -61.758
1510.9000, -61.532
1511.0000, -61.361
1511.1000, -61.150
1511.2000, -61.005
1511.3000, -60.809
1511.4000, -60.716
1511.5000, -60.555
1511.6000, -60.437
1511.7000, -60.360
1511.8000, -60.222
1511.9000, -60.125
1512.0000, -60.050
1512.1000, -59.964
1512.2000, -59.886
1512.3000, -59.827
1512.4000, -59.798
1512.5000, -59.737
1512.6000, -59.682
1512.7000, -59.646
1512.8000, -59.633
1512.9000, -59.604
1513.0000, -59.620
1513.1000, -59.653
1513.2000, -59.639
1513.3000, -59.656
1513.4000, -59.660
1513.5000, -59.702
1513.6000, -59.753
1513.7000, -59.805
1513.8000, -59.893
1513.9000, -59.939
1514.0000, -60.043
1514.1000, -60.146
1514.2000, -60.261
1514.3000, -60.397
1514.4000, -60.571
1514.5000, -60.698
1514.6000, -60.870
1514.7000, -61.055
1514.8000, -61.189
1514.9000, -61.413
1515.0000, -61.559
1515.1000, -61.784
1515.2000, -62.008
1515.3000, -62.188
1515.4000, -62.410
1515.5000, -62.665
1515.6000, -62.928
1515.7000, -63.169
1515.8000, -63.433
1515.9000, -63.829
1516.0000, -64.028
1516.1000, -64.455
1516.2000, -64.712
1516.3000, -65.124
1516.4000, -65.367
1516.5000, -65.753
1516.6000, -66.062
1516.7000, -66.230
1516.8000, -66.674
1516.9000, -66.814
1517.0000, -66.825
1517.1000, -66.885
1517.2000, -66.890
1517.3000, -66.775
1517.4000, -66.650
1517.5000, -66.391
1517.6000, -66.206
1517.7000, -65.806
1517.8000, -65.359
1517.9000, -64.956
1518.0000, -64.456
1518.1000, -64.033
1518.2000, -63.600
1518.3000, -63.196
1518.4000, -62.719
1518.5000, -62.308
1518.6000, -61.798
1518.7000, -61.330
1518.8000, -60.896
1518.9000, -60.427
1519.0000, -60.013
1519.1000, -59.571
1519.2000, -59.155
1519.3000, -58.752
1519.4000, -58.379
1519.5000, -57.990
1519.6000, -57.588
1519.7000, -57.193
1519.8000, -56.809
1519.9000, -56.438
1520.0000, -56.061
1520.1000, -55.696
1520.2000, -55.366
1520.3000, -55.015
1520.4000, -54.700
1520.5000, -54.370
1520.6000, -54.053
1520.7000, -53.716
1520.8000, -53.375
1520.9000, -53.048
1521.0000, -52.733
1521.1000, -52.430
1521.2000, -52.127
1521.3000, -51.835
1521.4000, -51.543
1521.5000, -51.260
1521.6000, -50.979
1521.7000, -50.699
1521.8000, -50.430
1521.9000, -50.163
1522.0000, -49.906
1522.1000, -49.657
1522.2000, -49.422
1522.3000, -49.185
1522.4000, -48.952
1522.5000, -48.733
1522.6000, -48.507
1522.7000, -48.292
1522.8000, -48.100
1522.9000, -47.849
1523.0000, -47.626
1523.1000, -47.412
1523.2000, -47.189
1523.3000, -46.978
1523.4000, -46.779
1523.5000, -46.579
1523.6000, -46.389
1523.7000, -46.204
1523.8000, -46.033
1523.9000, -45.853
1524.0000, -45.682
1524.1000, -45.527
1524.2000, -45.368
1524.3000, -45.223
1524.4000, -45.082
1524.5000, -44.955
1524.6000, -44.843
1524.7000, -44.734
1524.8000, -44.642
1524.9000, -44.561
1525.0000, -44.491
1525.1000, -44.441
1525.2000, -44.401
1525.3000, -44.383
1525.4000, -44.361
1525.5000, -44.339
1525.6000, -44.326
1525.7000, -44.320
1525.8000, -44.341
1525.9000, -44.399
1526.0000, -44.490
1526.1000, -44.625
1526.2000, -44.780
1526.3000, -44.949
1526.4000, -45.120
1526.5000, -45.313
1526.6000, -45.516
1526.7000, -45.727
1526.8000, -45.967
1526.9000, -46.253
1527.0000, -46.565
1527.1000, -46.932
1527.2000, -47.336
1527.3000, -47.755
1527.4000, -48.220
1527.5000, -48.702
1527.6000, -49.184
1527.7000, -49.678
1527.8000, -50.180
1527.9000, -50.713
1528.0000, -51.189
1528.1000, -51.558
1528.2000, -51.780
1528.3000, -51.715
1528.4000, -51.382
1528.5000, -50.772
1528.6000, -49.996
1528.7000, -49.014
1528.8000, -47.965
1528.9000, -46.917
1529.0000, -45.831
1529.1000, -44.833
1529.2000, -43.851
1529.3000, -42.919
1529.4000, -42.034
1529.5000, -41.212
1529.6000, -40.433
1529.7000, -39.730
1529.8000, -39.064
1529.9000, -38.426
1530.0000, -37.837
1530.1000, -37.275
1530.2000, -36.748
1530.3000, -36.280
1530.4000, -35.801
1530.5000, -35.355
1530.6000, -34.920
1530.7000, -34.493
1530.8000, -34.118
1530.9000, -33.774
1531.0000, -33.445
1531.1000, -33.125
1531.2000, -32.828
1531.3000, -32.581
1531.4000, -32.323
1531.5000, -32.095
1531.6000, -31.882
1531.7000, -31.711
1531.8000, -31.552
1531.9000, -31.414
1532.0000, -31.275
1532.1000, -31.174
1532.2000, -31.072
1532.3000, -30.982
1532.4000, -30.916
1532.5000, -30.838
1532.6000, -30.837
1532.7000, -30.852
1532.8000, -30.885
1532.9000, -30.929
1533.0000, -30.994
1533.1000, -31.088
1533.2000, -31.226
1533.3000, -31.355
1533.4000, -31.517
1533.5000, -31.707
1533.6000, -31.892
1533.7000, -32.099
1533.8000, -32.321
1533.9000, -32.549
1534.0000, -32.813
1534.1000, -33.074
1534.2000, -33.382
1534.3000, -33.713
1534.4000, -34.076
1534.5000, -34.403
1534.6000, -34.776
1534.7000, -35.153
1534.8000, -35.538
1534.9000, -35.966
1535.0000, -36.404
1535.1000, -36.841
1535.2000, -37.249
1535.3000, -37.673
1535.4000, -38.136
1535.5000, -38.589
1535.6000, -39.034
1535.7000, -39.469
1535.8000, -39.924
1535.9000, -40.374
1536.0000, -40.803
1536.1000, -41.225
1536.2000, -41.675
1536.3000, -42.131
1536.4000, -42.594
1536.5000, -43.042
1536.6000, -43.493
1536.7000, -43.937
1536.8000, -44.340
1536.9000, -44.722
1537.0000, -45.097
1537.1000, -45.488
1537.2000, -45.883
1537.3000, -46.271
1537.4000, -46.641
1537.5000, -46.985
1537.6000, -47.316
1537.7000, -47.606
1537.8000, -47.858
1537.9000, -48.059
1538.0000, -48.217
1538.1000, -48.298
1538.2000, -48.346
1538.3000, -48.344
1538.4000, -48.297
1538.5000, -48.207
1538.6000, -48.075
1538.7000, -47.915
1538.8000, -47.726
1538.9000, -47.523
1539.0000, -47.294
1539.1000, -47.073
1539.2000, -46.832
1539.3000, -46.593
1539.4000, -46.330
1539.5000, -46.058
1539.6000, -45.765
1539.7000, -45.494
1539.8000, -45.212
1539.9000, -44.946
1540.0000, -44.713
1540.1000, -44.475
1540.2000, -44.245
1540.3000, -44.023
1540.4000, -43.798
1540.5000, -43.587
1540.6000, -43.376
1540.7000, -43.184
1540.8000, -43.010
1540.9000, -42.834
1541.0000, -42.667
1541.1000, -42.507
1541.2000, -42.333
1541.3000, -42.182
1541.4000, -42.042
1541.5000, -41.905
1541.6000, -41.778
1541.7000, -41.665
1541.8000, -41.568
1541.9000, -41.472
1542.0000, -41.383
1542.1000, -41.306
1542.2000, -41.233
1542.3000, -41.182
1542.4000, -41.117
1542.5000, -41.102
1542.6000, -41.063
1542.7000, -41.049
1542.8000, -41.039
1542.9000, -41.034
1543.0000, -41.036
1543.1000, -41.057
1543.2000, -41.074
1543.3000, -41.103
1543.4000, -41.142
1543.5000, -41.166
1543.6000, -41.223
1543.7000, -41.259
1543.8000, -41.318
1543.9000, -41.384
1544.0000, -41.467
1544.1000, -41.557
1544.2000, -41.649
1544.3000, -41.746
1544.4000, -41.831
1544.5000, -41.939
1544.6000, -42.039
1544.7000, -42.153
1544.8000, -42.272
1544.9000, -42.404
1545.0000, -42.560
1545.1000, -42.716
1545.2000, -42.868
1545.3000, -43.036
1545.4000, -43.191
1545.5000, -43.353
1545.6000, -43.535
1545.7000, -43.710
1545.8000, -43.897
1545.9000, -44.104
1546.0000, -44.325
1546.1000, -44.554
1546.2000, -44.786
1546.3000, -45.013
1546.4000, -45.231
1546.5000, -45.457
1546.6000, -45.672
1546.7000, -45.883
1546.8000, -46.109
1546.9000, -46.329
1547.0000, -46.572
1547.1000, -46.796
1547.2000, -46.998
1547.3000, -47.165
1547.4000, -47.296
1547.5000, -47.389
1547.6000, -47.451
1547.7000, -47.482
1547.8000, -47.489
1547.9000, -47.474
1548.0000, -47.431
1548.1000, -47.363
1548.2000, -47.260
1548.3000, -47.139
1548.4000, -46.992
1548.5000, -46.815
1548.6000, -46.613
1548.7000, -46.394
1548.8000, -46.161
1548.9000, -45.917
1549.0000, -45.667
1549.1000, -45.414
1549.2000, -45.172
1549.3000, -44.930
1549.4000, -44.690
1549.5000, -44.450
1549.6000, -44.211
1549.7000, -43.979
1549.8000, -43.762
1549.9000, -43.555
1550.0000, -43.376
1550.1000, -43.200
1550.2000, -43.043
1550.3000, -42.884
1550.4000, -42.724
1550.5000, -42.571
1550.6000, -42.425
1550.7000, -42.281
1550.8000, -42.153
1550.9000, -42.051
1551.0000, -41.955
1551.1000, -41.868
1551.2000, -41.788
1551.3000, -41.721
1551.4000, -41.666
1551.5000, -41.627
1551.6000, -41.598
1551.7000, -41.577
1551.8000, -41.549
1551.9000, -41.529
1552.0000, -41.514
1552.1000, -41.514
1552.2000, -41.529
1552.3000, -41.562
1552.4000, -41.606
1552.5000, -41.658
1552.6000, -41.717
1552.7000, -41.776
1552.8000, -41.844
1552.9000, -41.920
1553.0000, -42.000
1553.1000, -42.080
1553.2000, -42.175
1553.3000, -42.282
1553.4000, -42.411
1553.5000, -42.540
1553.6000, -42.677
1553.7000, -42.813
1553.8000, -42.957
1553.9000, -43.093
1554.0000, -43.236
1554.1000, -43.392
1554.2000, -43.568
1554.3000, -43.749
1554.4000, -43.948
1554.5000, -44.155
1554.6000, -44.358
1554.7000, -44.567
1554.8000, -44.789
1554.9000, -45.020
1555.0000, -45.257
1555.1000, -45.506
1555.2000, -45.761
1555.3000, -46.038
1555.4000, -46.321
1555.5000, -46.612
1555.6000, -46.910
1555.7000, -47.213
1555.8000, -47.529
1555.9000, -47.858
1556.0000, -48.208
1556.1000, -48.579
1556.2000, -48.951
1556.3000, -49.317
1556.4000, -49.688
1556.5000, -50.155
1556.6000, -50.483
1556.7000, -50.912
1556.8000, -51.358
1556.9000, -51.842
1557.0000, -52.312
1557.1000, -52.786
1557.2000, -53.252
1557.3000, -53.726
1557.4000, -54.188
1557.5000, -54.612
1557.6000, -54.984
1557.7000, -55.296
1557.8000, -55.583
1557.9000, -55.852
1558.0000, -56.068
1558.1000, -56.244
1558.2000, -56.346
1558.3000, -56.365
1558.4000, -56.341
1558.5000, -56.240
1558.6000, -56.093
1558.7000, -55.903
1558.8000, -55.689
1558.9000, -55.479
1559.0000, -55.233
1559.1000, -55.004
1559.2000, -54.781
1559.3000, -54.579
1559.4000, -54.381
1559.5000, -54.174
1559.6000, -54.003
1559.7000, -53.830
1559.8000, -53.667
1559.9000, -53.522
1560.0000, -53.378
1560.1000, -53.253
1560.2000, -53.154
1560.3000, -53.047
1560.4000, -52.981
1560.5000, -52.919
1560.6000, -52.879
1560.7000, -52.851
1560.8000, -52.855
1560.9000, -52.863
1561.0000, -52.884
1561.1000, -52.921
1561.2000, -52.973
1561.3000, -53.035
1561.4000, -53.109
1561.5000, -53.190
1561.6000, -53.290
1561.7000, -53.421
1561.8000, -53.574
1561.9000, -53.734
1562.0000, -53.917
1562.1000, -54.111
1562.2000, -54.322
1562.3000, -54.524
1562.4000, -54.733
1562.5000, -54.939
1562.6000, -55.148
1562.7000, -55.340
1562.8000, -55.545
1562.9000, -55.738
1563.0000, -55.951
1563.1000, -56.152
1563.2000, -56.357
1563.3000, -56.585
1563.4000, -56.825
1563.5000, -57.074
1563.6000, -57.353
1563.7000, -57.611
1563.8000, -57.885
1563.9000, -58.148
1564.0000, -58.430
1564.1000, -58.677
1564.2000, -58.968
1564.3000, -59.254
1564.4000, -59.535
1564.5000, -59.805
1564.6000, -60.027
1564.7000, -60.210
1564.8000, -60.344
1564.9000, -60.459
1565.0000, -60.546
1565.1000, -60.598
1565.2000, -60.670
1565.3000, -60.706
1565.4000, -60.736
1565.5000, -60.762
1565.6000, -60.734
1565.7000, -60.720
1565.8000, -60.668
1565.9000, -60.602
1566.0000, -60.504
1566.1000, -60.370
1566.2000, -60.211
1566.3000, -60.055
1566.4000, -59.900
1566.5000, -59.743
1566.6000, -59.567
1566.7000, -59.409
1566.8000, -59.285
1566.9000, -59.146
1567.0000, -59.017
1567.1000, -58.903
1567.2000, -58.805
1567.3000, -58.729
1567.4000, -58.605
1567.5000, -58.545
1567.6000, -58.462
1567.7000, -58.413
1567.8000, -58.332
1567.9000, -58.311
1568.0000, -58.245
1568.1000, -58.218
1568.2000, -58.191
1568.3000, -58.148
1568.4000, -58.089
1568.5000, -58.024
1568.6000, -57.984
1568.7000, -57.941
1568.8000, -57.898
1568.9000, -57.912
1569.0000, -57.919
1569.1000, -57.945
1569.2000, -57.966
1569.3000, -57.995
1569.4000, -57.997
1569.5000, -58.017
1569.6000, -58.060
1569.7000, -58.074
1569.8000, -58.121
1569.9000, -58.143
1570.0000, -58.232
1570.1000, -58.289
1570.2000, -58.353
1570.3000, -58.417
1570.4000, -58.479
1570.5000, -58.567
1570.6000, -58.663
1570.7000, -58.760
1570.8000, -58.878
1570.9000, -58.977
1571.0000, -59.117
1571.1000, -59.244
1571.2000, -59.390
1571.3000, -59.552
1571.4000, -59.711
1571.5000, -59.923
1571.6000, -60.086
1571.7000, -60.287
1571.8000, -60.484
1571.9000, -60.718
1572.0000, -60.958
1572.1000, -61.187
1572.2000, -61.477
1572.3000, -61.746
1572.4000, -62.040
1572.5000, -62.309
1572.6000, -62.639
1572.7000, -62.947
1572.8000, -63.203
1572.9000, -63.550
1573.0000, -63.930
1573.1000, -64.275
1573.2000, -64.615
1573.3000, -65.013
1573.4000, -65.476
1573.5000, -65.785
1573.6000, -66.216
1573.7000, -66.689
1573.8000, -67.159
1573.9000, -67.525
1574.0000, -68.066
1574.1000, -68.563
1574.2000, -69.178
1574.3000, -69.857
1574.4000, -70.342
1574.5000, -71.267
1574.6000, -71.992
1574.7000, -72.468
1574.8000, -74.107
1574.9000, -74.204
1575.0000, -75.517
1575.1000, -75.593
1575.2000, -78.837
1575.3000, -76.909
1575.4000, -78.284
1575.5000, -80.370
1575.6000, -78.021
1575.7000, -78.112
1575.8000, -76.603
1575.9000, -75.138
1576.0000, -74.865
1576.1000, -73.517
1576.2000, -72.850
1576.3000, -72.327
1576.4000, -71.493
1576.5000, -70.795
1576.6000, -70.401
1576.7000, -69.555
1576.8000, -69.172
1576.9000, -68.709
1577.0000, -68.407
1577.1000, -67.889
1577.2000, -67.552
1577.3000, -67.142
1577.4000, -66.848
1577.5000, -66.528
1577.6000, -66.180
1577.7000, -65.915
1577.8000, -65.548
1577.9000, -65.354
1578.0000, -65.195
1578.1000, -64.925
1578.2000, -64.841
1578.3000, -64.581
1578.4000, -64.360
1578.5000, -64.279
1578.6000, -64.075
1578.7000, -63.910
1578.8000, -63.800
1578.9000, -63.647
1579.0000, -63.505
1579.1000, -63.348
1579.2000, -63.207
1579.3000, -63.102
1579.4000, -62.971
1579.5000, -62.872
1579.6000, -62.773
1579.7000, -62.688
1579.8000, -62.636
1579.9000, -62.567
1580.0000, -62.515
1580.1000, -62.453
1580.2000, -62.474
1580.3000, -62.428
1580.4000, -62.371
1580.5000, -62.299
1580.6000, -62.318
1580.7000, -62.314
1580.8000, -62.249
1580.9000, -62.278
1581.0000, -62.295
1581.1000, -62.274
1581.2000, -62.343
1581.3000, -62.302
1581.4000, -62.325
1581.5000, -62.308
1581.6000, -62.410
1581.7000, -62.499
1581.8000, -62.515
1581.9000, -62.609
1582.0000, -62.643
1582.1000, -62.703
1582.2000, -62.794
1582.3000, -62.916
1582.4000, -62.972
1582.5000, -63.053
1582.6000, -63.148
1582.7000, -63.247
1582.8000, -63.370
1582.9000, -63.486
1583.0000, -63.627
1583.1000, -63.802
1583.2000, -63.920
1583.3000, -64.178
1583.4000, -64.333
1583.5000, -64.475
1583.6000, -64.712
1583.7000, -64.881
1583.8000, -65.101
1583.9000, -65.336
1584.0000, -65.550
1584.1000, -65.746
1584.2000, -66.002
1584.3000, -66.276
1584.4000, -66.588
1584.5000, -66.804
1584.6000, -67.111
1584.7000, -67.475
1584.8000, -67.688
1584.9000, -68.072
1585.0000, -68.293
1585.1000, -68.714
1585.2000, -69.081
1585.3000, -69.551
1585.4000, -69.785
1585.5000, -70.311
1585.6000, -70.676
1585.7000, -71.339
1585.8000, -71.572
1585.9000, -72.219
1586.0000, -72.753
1586.1000, -73.695
1586.2000, -73.639
1586.3000, -74.485
1586.4000, -74.930
1586.5000, -75.382
1586.6000, -78.638
1586.7000, -76.221
1586.8000, -76.567
1586.9000, -77.908
1587.0000, -78.044
1587.1000, -77.502
1587.2000, -76.820
1587.3000, -78.023
1587.4000, -75.870
1587.5000, -75.214
1587.6000, -75.494
1587.7000, -74.408
1587.8000, -73.939
1587.9000, -72.897
1588.0000, -72.737
1588.1000, -72.166
1588.2000, -71.727
1588.3000, -71.245
1588.4000, -70.706
1588.5000, -70.417
1588.6000, -69.866
1588.7000, -69.610
1588.8000, -69.091
1588.9000, -68.967
1589.0000, -68.704
1589.1000, -68.289
1589.2000, -68.059
1589.3000, -67.750
1589.4000, -67.369
1589.5000, -67.300
1589.6000, -67.100
1589.7000, -66.770
1589.8000, -66.638
1589.9000, -66.371
1590.0000, -66.199
1590.1000, -66.101
1590.2000, -65.801
1590.3000, -65.760
1590.4000, -65.671
1590.5000, -65.600
1590.6000, -65.379
1590.7000, -65.265
1590.8000, -65.173
1590.9000, -65.137
1591.0000, -65.002
1591.1000, -64.915
1591.2000, -64.912
1591.3000, -64.918
1591.4000, -64.846
1591.5000, -64.786
1591.6000, -64.809
1591.7000, -64.747
1591.8000, -64.764
1591.9000, -64.717
1592.0000, -64.783
1592.1000, -64.758
1592.2000, -64.826
1592.3000, -64.802
1592.4000, -64.878
1592.5000, -64.850
1592.6000, -65.003
1592.7000, -65.009
1592.8000, -65.048
1592.9000, -65.104
1593.0000, -65.140
1593.1000, -65.217
1593.2000, -65.336
1593.3000, -65.360
1593.4000, -65.533
1593.5000, -65.635
1593.6000, -65.679
1593.7000, -65.892
1593.8000, -65.978
1593.9000, -66.178
1594.0000, -66.202
1594.1000, -66.473
1594.2000, -66.621
1594.3000, -66.745
1594.4000, -67.027
1594.5000, -67.081
1594.6000, -67.300
1594.7000, -67.493
1594.8000, -67.722
1594.9000, -67.863
1595.0000, -68.163
1595.1000, -68.356
1595.2000, -68.469
1595.3000, -68.749
1595.4000, -68.990
1595.5000, -69.277
1595.6000, -69.514
1595.7000, -69.772
1595.8000, -69.915
1595.9000, -70.396
1596.0000, -70.421
1596.1000, -70.907
1596.2000, -71.378
1596.3000, -71.470
1596.4000, -71.688
1596.5000, -72.123
1596.6000, -72.348
1596.7000, -72.501
1596.8000, -72.775
1596.9000, -73.309
1597.0000, -73.439
1597.1000, -73.922
1597.2000, -74.292
1597.3000, -74.684
1597.4000, -75.284
1597.5000, -75.445
1597.6000, -75.424
1597.7000, -75.455
1597.8000, -75.950
1597.9000, -76.574
1598.0000, -75.941
1598.1000, -75.715
1598.2000, -75.170
1598.3000, -75.853
1598.4000, -75.213
1598.5000, -75.034
1598.6000, -75.995
1598.7000, -74.992
1598.8000, -74.616
1598.9000, -74.545
1599.0000, -74.152
1599.1000, -73.377
1599.2000, -73.531
1599.3000, -73.068
1599.4000, -72.877
1599.5000, -72.454
1599.6000, -72.454
1599.7000, -71.680
1599.8000, -71.565
1599.9000, -71.040
1600.0000, -71.019
1600.1000, -70.835
1600.2000, -70.761
1600.3000, -70.416
1600.4000, -69.966
1600.5000, -70.027
1600.6000, -69.819
1600.7000, -69.449
1600.8000, -69.593
1600.9000, -69.169
1601.0000, -69.089
1601.1000, -68.984
1601.2000, -68.799
1601.3000, -68.672
1601.4000, -68.525
1601.5000, -68.618
1601.6000, -68.324
1601.7000, -68.339
1601.8000, -68.249
1601.9000, -68.316
1602.0000, -68.269
1602.1000, -68.248
1602.2000, -68.209
1602.3000, -68.189
1602.4000, -67.987
1602.5000, -68.009
1602.6000, -67.845
1602.7000, -68.094
1602.8000, -67.870
1602.9000, -67.934
1603.0000, -67.812
1603.1000, -68.078
1603.2000, -67.988
1603.3000, -68.018
1603.4000, -68.127
1603.5000, -68.095
1603.6000, -68.122
1603.7000, -68.313
1603.8000, -68.358
1603.9000, -68.533
1604.0000, -68.556
1604.1000, -68.484
1604.2000, -68.576
1604.3000, -68.650
1604.4000, -68.872
1604.5000, -68.863
1604.6000, -68.947
1604.7000, -68.994
1604.8000, -69.058
1604.9000, -69.148
1605.0000, -69.316
1605.1000, -69.335
1605.2000, -69.898
1605.3000, -69.700
1605.4000, -69.996
1605.5000, -69.972
1605.6000, -69.941
1605.7000, -70.700
1605.8000, -70.431
1605.9000, -71.063
1606.0000, -70.862
1606.1000, -71.005
1606.2000, -71.143
1606.3000, -71.456
1606.4000, -72.043
1606.5000, -71.641
1606.6000, -72.121
1606.7000, -71.894
1606.8000, -72.581
1606.9000, -72.353
1607.0000, -72.944
1607.1000, -72.980
1607.2000, -73.473
1607.3000, -73.842
1607.4000, -74.185
1607.5000, -74.561
1607.6000, -74.200
1607.7000, -74.903
1607.8000, -74.476
1607.9000, -76.336
1608.0000, -75.246
1608.1000, -76.131
1608.2000, -77.473
1608.3000, -76.104
1608.4000, -77.647
1608.5000, -78.342
1608.6000, -78.670
1608.7000, -78.153
1608.8000, -78.604
1608.9000, -77.416
1609.0000, -79.454
1609.1000, -80.585
1609.2000, -81.456
1609.3000, -80.932
1609.4000, -80.903
1609.5000, -79.281
1609.6000, -80.678
1609.7000, -80.503
1609.8000, -80.586
1609.9000, -80.264
1610.0000, -78.627
1610.1000, -78.318
1610.2000, -79.771
1610.3000, -82.165
1610.4000, -79.661
1610.5000, -79.606
1610.6000, -79.580
1610.7000, -81.125
1610.8000, -77.557
1610.9000, -83.332
1611.0000, -79.060
1611.1000, -76.955
1611.2000, -77.265
1611.3000, -77.324
1611.4000, -77.598
1611.5000, -76.972
1611.6000, -77.604
1611.7000, -75.882
1611.8000, -76.269
1611.9000, -76.138
1612.0000, -75.850
1612.1000, -75.295
1612.2000, -76.388
1612.3000, -76.380
1612.4000, -76.247
1612.5000, -75.393
1612.6000, -74.685
1612.7000, -75.692
1612.8000, -74.784
1612.9000, -74.813
1613.0000, -74.058
1613.1000, -74.578
1613.2000, -75.111
1613.3000, -73.830
1613.4000, -74.333
1613.5000, -73.998
1613.6000, -73.791
1613.7000, -73.919
1613.8000, -73.919
1613.9000, -74.030
1614.0000, -73.456
1614.1000, -73.768
1614.2000, -73.300
1614.3000, -73.939
1614.4000, -72.861
1614.5000, -73.368
1614.6000, -73.960
1614.7000, -73.006
1614.8000, -73.104
1614.9000, -74.121
1615.0000, -73.310
1615.1000, -73.057
1615.2000, -74.190
1615.3000, -72.858
1615.4000, -73.355
1615.5000, -74.457
1615.6000, -73.815
1615.7000, -73.187
1615.8000, -73.649
1615.9000, -73.764
1616.0000, -73.392
1616.1000, -74.074
1616.2000, -73.397
1616.3000, -74.065
1616.4000, -73.771
1616.5000, -74.070
1616.6000, -73.634
1616.7000, -74.490
1616.8000, -74.453
1616.9000, -74.072
1617.0000, -74.615
1617.1000, -73.804
1617.2000, -74.262
1617.3000, -74.449
1617.4000, -75.064
1617.5000, -74.683
1617.6000, -73.960
1617.7000, -75.059
1617.8000, -74.913
1617.9000, -75.129
1618.0000, -74.180
1618.1000, -75.332
1618.2000, -76.528
1618.3000, -74.666
1618.4000, -74.691
1618.5000, -75.180
1618.6000, -76.142
1618.7000, -75.398
1618.8000, -75.631
1618.9000, -75.041
1619.0000, -75.926
1619.1000, -76.322
1619.2000, -76.032
1619.3000, -76.272
1619.4000, -75.264
1619.5000, -78.034
1619.6000, -77.704
1619.7000, -76.126
1619.8000, -76.685
1619.9000, -77.060
1620.0000, -77.652
